Unit:(mV)
                     CH1         CH2
Frequency              ? 261.459 kHz
00001              -8.00    -4200.00
00002              -8.00    -4000.00
00003              -4.00    -4000.00
00004              -4.00    -3800.00
00005              -4.00    -3600.00
00006              -4.00    -3400.00
00007              -4.00    -3200.00
00008              -8.00    -3000.00
00009              -8.00    -2800.00
00010              -4.00    -2800.00
00011              -4.00    -2600.00
00012              -6.00    -2200.00
00013              -8.00    -2000.00
00014              -8.00    -2000.00
00015              -4.00    -1800.00
00016              -4.00    -1600.00
00017              -4.00    -1400.00
00018              -4.00    -1200.00
00019              -4.00    -1000.00
00020              -4.00     -800.00
00021              -8.00     -800.00
00022              -6.00     -400.00
00023              -4.00     -200.00
00024              -2.00     -200.00
00025              -2.00        0.00
00026              -2.00      400.00
00027              12.00      200.00
00028              16.00      600.00
00029              -4.00     1000.00
00030             -14.00     1000.00
00031               0.00     1200.00
00032               8.00     1200.00
00033              10.00     1400.00
00034             118.00     1600.00
00035             246.00     2000.00
00036            -120.00     2200.00
00037            -248.00     2400.00
00038            -138.00     2400.00
00039              16.00     2400.00
00040             252.00     2800.00
00041             252.00     2800.00
00042            -248.00     2800.00
00043            -248.00     3400.00
00044             252.00     3200.00
00045            -132.00     3800.00
00046            -248.00     3800.00
00047             252.00     3600.00
00048               4.00     4400.00
00049            -248.00     4000.00
00050             252.00     4200.00
00051            -180.00     5000.00
00052             -48.00     4600.00
00053             238.00     4800.00
00054            -212.00     5400.00
00055              12.00     5000.00
00056             100.00     5400.00
00057            -122.00     6000.00
00058              52.00     5400.00
00059              54.00     6200.00
00060             -42.00     6400.00
00061             -92.00     6000.00
00062              64.00     6400.00
00063              86.00     6400.00
00064            -164.00     6600.00
00065              72.00     7000.00
00066              64.00     7000.00
00067            -152.00     7000.00
00068              80.00     7000.00
00069               8.00     7600.00
00070             -50.00     7600.00
00071              52.00     7600.00
00072             -48.00     8000.00
00073             -20.00     7800.00
00074              28.00     8000.00
00075              12.00     8400.00
00076             -32.00     8200.00
00077             -12.00     8600.00
00078              28.00     8600.00
00079             -50.00     8600.00
00080              22.00     9000.00
00081              28.00     8800.00
00082             -64.00     9200.00
00083              28.00     9000.00
00084              20.00     9400.00
00085             -42.00     9200.00
00086               2.00     9400.00
00087              12.00     9600.00
00088             -12.00     9400.00
00089              -4.00     9600.00
00090               6.00    10000.00
00091             -18.00     9800.00
00092              -2.00    10000.00
00093              14.00    10200.00
00094             -26.00    10200.00
00095               0.00    10200.00
00096              14.00    10400.00
00097             -20.00    10400.00
00098               2.00    10400.00
00099               6.00    10600.00
00100             -24.00    10400.00
00101              -2.00    10600.00
00102              16.00    10800.00
00103             -10.00    10800.00
00104             -10.00    10800.00
00105               6.00    10800.00
00106             -12.00    10800.00
00107              -8.00    11000.00
00108               6.00    11000.00
00109              -8.00    11000.00
00110              -8.00    11000.00
00111               2.00    11000.00
00112             -10.00    11000.00
00113              -6.00    11000.00
00114               6.00    11200.00
00115             -10.00    11200.00
00116              -4.00    11000.00
00117               4.00    11200.00
00118             -12.00    11200.00
00119              -8.00    11200.00
00120               6.00    11200.00
00121              -4.00    11200.00
00122              -4.00    11200.00
00123               4.00    11200.00
00124              -8.00    11200.00
00125              -8.00    11200.00
00126               0.00    11200.00
00127              -8.00    11200.00
00128              -4.00    11000.00
00129               4.00    11000.00
00130              -4.00    11000.00
00131              -4.00    11000.00
00132              -2.00    10800.00
00133              -6.00    11000.00
00134              -2.00    10800.00
00135               4.00    10800.00
00136              -4.00    10800.00
00137              -2.00    10800.00
00138              -2.00    10400.00
00139              -6.00    10800.00
00140              -4.00    10400.00
00141               4.00    10400.00
00142              -2.00    10400.00
00143              -2.00    10400.00
00144               4.00    10400.00
00145              -4.00    10200.00
00146              -4.00    10200.00
00147              -2.00    10000.00
00148               0.00    10000.00
00149              -2.00     9800.00
00150               0.00     9800.00
00151              -2.00     9800.00
00152              -4.00     9600.00
00153              -2.00     9600.00
00154               0.00     9600.00
00155              -2.00     9400.00
00156               4.00     9200.00
00157              -2.00     9200.00
00158              -2.00     9000.00
00159              -2.00     8800.00
00160              -2.00     8800.00
00161              -4.00     8600.00
00162               4.00     8600.00
00163               0.00     8400.00
00164              -4.00     8400.00
00165               0.00     8000.00
00166              -2.00     8200.00
00167               0.00     8000.00
00168               2.00     7800.00
00169               4.00     7800.00
00170               0.00     7600.00
00171              -2.00     7600.00
00172              -2.00     7400.00
00173              -2.00     7200.00
00174               0.00     7000.00
00175               0.00     6800.00
00176              -2.00     6800.00
00177               4.00     6400.00
00178              -4.00     6400.00
00179              -4.00     6200.00
00180              -2.00     6000.00
00181              -2.00     6000.00
00182              -2.00     5600.00
00183               4.00     5600.00
00184              -2.00     5400.00
00185              -4.00     5200.00
00186              -2.00     5200.00
00187              -2.00     5000.00
00188               0.00     4800.00
00189               2.00     4800.00
00190              -2.00     4600.00
00191              -2.00     4400.00
00192              -2.00     4000.00
00193              -2.00     4000.00
00194              -2.00     3800.00
00195               4.00     3600.00
00196               0.00     3600.00
00197              -4.00     3200.00
00198              -4.00     3000.00
00199              -2.00     3000.00
00200              -2.00     2800.00
00201               0.00     2600.00
00202               4.00     2400.00
00203               0.00     2400.00
00204              -2.00     2000.00
00205               0.00     2000.00
00206               0.00     1600.00
00207              -4.00     1400.00
00208               0.00     1400.00
00209               0.00     1200.00
00210               0.00     1000.00
00211               0.00      800.00
00212              -2.00      600.00
00213               0.00      600.00
00214               0.00      200.00
00215               0.00      200.00
00216               6.00     -200.00
00217               4.00     -200.00
00218              14.00     -400.00
00219              22.00     -800.00
00220               4.00     -800.00
00221              -8.00    -1000.00
00222               4.00    -1200.00
00223              12.00    -1200.00
00224               8.00    -1400.00
00225              38.00    -1600.00
00226             174.00    -1800.00
00227             180.00    -2400.00
00228            -210.00    -2600.00
00229            -248.00    -2600.00
00230             -32.00    -2800.00
00231              30.00    -2600.00
00232             154.00    -2600.00
00233             252.00    -3400.00
00234            -248.00    -3400.00
00235            -248.00    -3000.00
00236             252.00    -4200.00
00237              54.00    -3600.00
00238            -248.00    -3600.00
00239             192.00    -4800.00
00240              84.00    -4200.00
00241             -90.00    -4400.00
00242              78.00    -5200.00
00243            -122.00    -4800.00
00244              -4.00    -5000.00
00245             134.00    -5400.00
00246             -42.00    -5200.00
00247             -40.00    -5600.00
00248             -12.00    -5800.00
00249              16.00    -5800.00
00250              54.00    -6000.00
00251              -6.00    -6200.00
00252             -44.00    -6400.00
00253             -24.00    -6400.00
00254              62.00    -6800.00
00255              32.00    -6800.00
00256             -72.00    -6800.00
00257               4.00    -7200.00
00258              28.00    -7200.00
00259               4.00    -7200.00
00260              -6.00    -7600.00
00261             -20.00    -7600.00
00262              28.00    -7800.00
00263               6.00    -8000.00
00264             -20.00    -8000.00
00265              -2.00    -8200.00
00266               0.00    -8400.00
00267              22.00    -8400.00
00268              12.00    -8400.00
00269             -18.00    -8800.00
00270             -12.00    -8800.00
00271               6.00    -9000.00
00272              14.00    -9200.00
00273               0.00    -9200.00
00274              -4.00    -9200.00
00275               0.00    -9200.00
00276               6.00    -9400.00
00277               4.00    -9600.00
00278             -10.00    -9600.00
00279               6.00    -9600.00
00280              16.00   -10000.00
00281              -2.00   -10000.00
00282              -4.00   -10000.00
00283               0.00   -10000.00
00284              -2.00   -10000.00
00285               2.00   -10200.00
00286               6.00   -10400.00
00287               0.00   -10400.00
00288              -2.00   -10600.00
00289               6.00   -10600.00
00290              -2.00   -10600.00
00291              -4.00   -10600.00
00292               4.00   -10800.00
00293               4.00   -10800.00
00294               6.00   -10800.00
00295               6.00   -10800.00
00296              -8.00   -11000.00
00297              -4.00   -10800.00
00298               6.00   -11200.00
00299               0.00   -11200.00
00300               0.00   -11200.00
00301               8.00   -11200.00
00302              -2.00   -11200.00
00303              -8.00   -11200.00
00304               0.00   -11200.00
00305              -2.00   -11400.00
00306              -2.00   -11400.00
00307               6.00   -11200.00
00308               0.00   -11200.00
00309              -4.00   -11400.00
00310              -4.00   -11200.00
00311              -4.00   -11400.00
00312              -2.00   -11200.00
00313               4.00   -11200.00
00314               2.00   -11400.00
00315              -2.00   -11200.00
00316              -4.00   -11400.00
00317              -8.00   -11400.00
00318              -4.00   -11200.00
00319               4.00   -11200.00
00320               0.00   -11200.00
00321              -2.00   -11200.00
00322              -2.00   -11200.00
00323              -4.00   -11200.00
00324              -4.00   -11000.00
00325              -2.00   -10800.00
00326               0.00   -10800.00
00327              -2.00   -10800.00
00328               0.00   -10800.00
00329              -4.00   -10800.00
00330              -4.00   -10800.00
00331              -4.00   -10600.00
00332              -2.00   -10800.00
00333               0.00   -10400.00
00334               4.00   -10600.00
00335              -4.00   -10600.00
00336              -4.00   -10400.00
00337              -4.00   -10400.00
00338              -4.00   -10400.00
00339              -2.00   -10200.00
00340               4.00   -10000.00
00341              -2.00   -10000.00
00342              -2.00    -9800.00
00343              -4.00    -9800.00
00344              -4.00    -9600.00
00345              -2.00    -9600.00
00346              -2.00    -9600.00
00347              -2.00    -9600.00
00348              -2.00    -9400.00
00349              -4.00    -9200.00
00350              -4.00    -9200.00
00351              -4.00    -9000.00
00352              -4.00    -8800.00
00353               0.00    -8800.00
00354              -2.00    -8800.00
00355              -4.00    -8400.00
00356              -4.00    -8400.00
00357              -4.00    -8200.00
00358              -4.00    -8200.00
00359              -2.00    -8000.00
00360              -2.00    -8000.00
00361              -2.00    -7800.00
00362              -4.00    -7600.00
00363              -6.00    -7600.00
00364              -4.00    -7400.00
00365              -4.00    -7200.00
00366              -4.00    -7200.00
00367              -4.00    -7000.00
00368              -4.00    -6800.00
00369              -8.00    -6600.00
00370              -6.00    -6400.00
00371              -8.00    -6400.00
00372              -4.00    -6000.00
00373              -2.00    -6000.00
00374              -4.00    -5800.00
00375              -4.00    -5600.00
00376             -10.00    -5600.00
00377              -8.00    -5200.00
00378              -8.00    -5200.00
00379              -4.00    -5000.00
00380              -4.00    -4800.00
00381              -4.00    -4800.00
00382              -6.00    -4400.00
00383              -8.00    -4400.00
00384              -6.00    -4200.00
00385              -6.00    -4000.00
00386              -4.00    -3800.00
00387              -2.00    -3800.00
00388              -4.00    -3400.00
00389              -8.00    -3200.00
00390              -8.00    -3200.00
00391              -8.00    -2800.00
00392              -4.00    -2800.00
00393              -4.00    -2600.00
00394              -4.00    -2400.00
00395              -4.00    -2400.00
00396              -8.00    -2000.00
00397              -8.00    -1800.00
00398              -6.00    -1600.00
00399              -4.00    -1600.00
00400              -4.00    -1400.00
00401              -4.00    -1200.00
00402              -8.00    -1200.00
00403             -10.00     -800.00
00404              -8.00     -600.00
00405              -4.00     -400.00
00406              -4.00     -200.00
00407              -2.00        0.00
00408              -2.00        0.00
00409               6.00      400.00
00410              20.00      400.00
00411               6.00      600.00
00412             -12.00     1000.00
00413              -4.00     1000.00
00414               6.00     1200.00
00415               6.00     1200.00
00416              46.00     1600.00
00417             228.00     1800.00
00418             106.00     2000.00
00419            -248.00     2200.00
00420            -248.00     2400.00
00421              -8.00     2400.00
00422             102.00     2400.00
00423             252.00     3000.00
00424             -52.00     2800.00
00425            -248.00     3000.00
00426             252.00     3200.00
00427             252.00     3400.00
00428            -248.00     3800.00
00429             102.00     3600.00
00430             252.00     4000.00
00431            -248.00     4400.00
00432             108.00     4000.00
00433             108.00     4800.00
00434            -248.00     4800.00
00435             236.00     4600.00
00436             -16.00     5200.00
00437            -172.00     5200.00
00438             150.00     4800.00
00439             -58.00     6000.00
00440             -46.00     5600.00
00441              86.00     5600.00
00442              -4.00     6400.00
00443             -80.00     6000.00
00444             -40.00     6400.00
00445             140.00     6800.00
00446             -82.00     6400.00
00447             -82.00     7000.00
00448             152.00     7000.00
00449            -106.00     7400.00
00450             -36.00     7200.00
00451              92.00     7400.00
00452             -72.00     7800.00
00453              28.00     7400.00
00454               6.00     8000.00
00455             -58.00     7800.00
00456              16.00     7800.00
00457              22.00     8400.00
00458              -8.00     8200.00
00459             -36.00     8400.00
00460              28.00     8800.00
00461             -18.00     8600.00
00462             -28.00     8600.00
00463              60.00     8800.00
00464             -40.00     9200.00
00465             -26.00     9000.00
00466              52.00     9200.00
00467             -28.00     9400.00
00468             -26.00     9200.00
00469              20.00     9600.00
00470               0.00     9600.00
00471             -12.00     9600.00
00472               4.00    10000.00
00473              -4.00     9800.00
00474             -16.00    10000.00
00475              18.00    10000.00
00476              -6.00    10200.00
00477             -20.00    10200.00
00478              20.00    10200.00
00479              -8.00    10400.00
00480             -16.00    10400.00
00481              12.00    10600.00
00482             -12.00    10400.00
00483             -16.00    10400.00
00484              16.00    10600.00
00485               0.00    10800.00
00486             -18.00    10800.00
00487               4.00    10800.00
00488              -2.00    11000.00
00489             -18.00    10800.00
00490               4.00    11000.00
00491               0.00    11000.00
00492              -8.00    11000.00
00493               6.00    11200.00
00494               2.00    11200.00
00495             -10.00    11000.00
00496               4.00    11200.00
00497              -4.00    11200.00
00498             -12.00    11000.00
00499              -2.00    11200.00
00500             -10.00    11200.00
00501             -16.00    11200.00
00502               4.00    11200.00
00503               4.00    11200.00
00504              -2.00    11200.00
00505               4.00    11200.00
00506               0.00    11200.00
00507              -8.00    11000.00
00508              -8.00    11200.00
00509              -4.00    11200.00
00510              -8.00    11000.00
00511              -2.00    11200.00
00512               0.00    11000.00
00513              -4.00    11000.00
00514               0.00    11000.00
00515               0.00    11000.00
00516              -4.00    10800.00
00517               0.00    11000.00
00518              -2.00    10800.00
00519              -4.00    10800.00
00520              -4.00    10600.00
00521              -4.00    10400.00
00522              -6.00    10400.00
00523              -2.00    10400.00
00524               0.00    10400.00
