Unit:(mV)
                     CH1         CH2
Frequency              ? 261.418 kHz
00001              -6.00    -4200.00
00002              -6.00    -4000.00
00003              -2.00    -3800.00
00004              -4.00    -3600.00
00005              -4.00    -3600.00
00006              -8.00    -3400.00
00007              -8.00    -3200.00
00008              -4.00    -2800.00
00009              -4.00    -2800.00
00010              -4.00    -2800.00
00011              -4.00    -2600.00
00012              -6.00    -2400.00
00013              -8.00    -2000.00
00014              -8.00    -2000.00
00015              -8.00    -1800.00
00016              -4.00    -1600.00
00017              -4.00    -1400.00
00018              -4.00    -1200.00
00019              -4.00    -1000.00
00020              -8.00    -1000.00
00021              -8.00     -800.00
00022              -8.00     -600.00
00023              -4.00     -400.00
00024              -2.00     -200.00
00025               0.00        0.00
00026               0.00        0.00
00027              20.00      400.00
00028              14.00      600.00
00029             -16.00     1000.00
00030             -20.00     1000.00
00031               4.00     1000.00
00032              12.00     1200.00
00033              20.00     1600.00
00034             182.00     1600.00
00035             248.00     2000.00
00036            -248.00     2000.00
00037            -248.00     2400.00
00038             -92.00     2200.00
00039             152.00     2400.00
00040             252.00     2800.00
00041             252.00     2800.00
00042            -248.00     2800.00
00043            -212.00     3400.00
00044             252.00     3200.00
00045            -196.00     3800.00
00046            -248.00     3600.00
00047             252.00     3800.00
00048             -36.00     4400.00
00049             -34.00     4000.00
00050             140.00     4600.00
00051            -248.00     5200.00
00052             136.00     4600.00
00053             174.00     5200.00
00054            -208.00     5400.00
00055              86.00     4800.00
00056             -58.00     5600.00
00057             -66.00     6000.00
00058             172.00     5400.00
00059             -48.00     6200.00
00060             -92.00     6200.00
00061             -34.00     6200.00
00062             108.00     6800.00
00063              40.00     6400.00
00064            -164.00     6600.00
00065              86.00     7000.00
00066              -2.00     7000.00
00067             -92.00     7200.00
00068             108.00     7200.00
00069             -52.00     7600.00
00070             -20.00     7600.00
00071              48.00     7800.00
00072             -66.00     8000.00
00073             -12.00     7600.00
00074              24.00     8400.00
00075              24.00     8200.00
00076             -48.00     8000.00
00077             -10.00     8800.00
00078              24.00     8400.00
00079             -56.00     8600.00
00080              44.00     8600.00
00081               4.00     8800.00
00082             -72.00     9000.00
00083              44.00     9200.00
00084               6.00     9400.00
00085             -44.00     9400.00
00086               2.00     9400.00
00087               4.00     9600.00
00088             -10.00     9600.00
00089               0.00     9800.00
00090              -2.00    10000.00
00091             -28.00    10000.00
00092              12.00    10000.00
00093              14.00    10000.00
00094             -40.00    10200.00
00095               6.00    10200.00
00096              12.00    10400.00
00097             -24.00    10400.00
00098               6.00    10400.00
00099              -2.00    10600.00
00100             -34.00    10400.00
00101               6.00    10600.00
00102              16.00    10800.00
00103             -20.00    10800.00
00104             -10.00    10800.00
00105               4.00    10800.00
00106             -18.00    11000.00
00107               0.00    11000.00
00108               6.00    11000.00
00109             -14.00    11200.00
00110              -4.00    11000.00
00111               4.00    11200.00
00112             -16.00    11200.00
00113              -4.00    11200.00
00114               4.00    11200.00
00115             -10.00    11000.00
00116               0.00    11200.00
00117               4.00    11200.00
00118             -16.00    11200.00
00119              -6.00    11200.00
00120               6.00    11000.00
00121              -8.00    11200.00
00122              -4.00    11000.00
00123               4.00    11400.00
00124             -10.00    11200.00
00125              -8.00    11200.00
00126               4.00    11200.00
00127              -4.00    11200.00
00128              -8.00    11200.00
00129               0.00    11000.00
00130              -4.00    11000.00
00131              -4.00    11000.00
00132              -2.00    11000.00
00133              -4.00    11000.00
00134              -4.00    10800.00
00135               6.00    10800.00
00136              -4.00    10800.00
00137              -8.00    10800.00
00138              -2.00    10600.00
00139              -6.00    10600.00
00140              -6.00    10400.00
00141               4.00    10400.00
00142              -4.00    10400.00
00143              -8.00    10400.00
00144              -2.00    10200.00
00145              -4.00    10200.00
00146              -8.00    10200.00
00147              -4.00    10000.00
00148              -4.00    10000.00
00149              -4.00    10000.00
00150              -4.00     9800.00
00151              -6.00     9600.00
00152              -4.00     9600.00
00153              -2.00     9600.00
00154              -4.00     9400.00
00155              -4.00     9200.00
00156              -2.00     9200.00
00157              -4.00     9200.00
00158              -4.00     9000.00
00159              -4.00     8800.00
00160              -4.00     8800.00
00161              -4.00     8600.00
00162              -2.00     8600.00
00163              -2.00     8600.00
00164              -4.00     8400.00
00165              -4.00     8200.00
00166              -4.00     8000.00
00167              -4.00     8000.00
00168               0.00     7600.00
00169               0.00     7600.00
00170              -4.00     7600.00
00171              -4.00     7400.00
00172              -2.00     7200.00
00173              -2.00     7200.00
00174               0.00     7000.00
00175               0.00     6800.00
00176              -4.00     6800.00
00177               0.00     6600.00
00178              -2.00     6400.00
00179              -4.00     6200.00
00180              -2.00     6200.00
00181              -2.00     6000.00
00182               0.00     5600.00
00183              -2.00     5600.00
00184              -4.00     5400.00
00185               0.00     5400.00
00186              -2.00     5200.00
00187               0.00     5000.00
00188               0.00     4800.00
00189               0.00     4800.00
00190               0.00     4600.00
00191               0.00     4400.00
00192              -4.00     4000.00
00193              -2.00     4000.00
00194               0.00     3600.00
00195               0.00     3600.00
00196               0.00     3400.00
00197              -2.00     3200.00
00198               0.00     3200.00
00199               0.00     2800.00
00200              -2.00     2800.00
00201               0.00     2400.00
00202              -2.00     2400.00
00203              -2.00     2000.00
00204              -2.00     2000.00
00205              -2.00     2000.00
00206              -2.00     1600.00
00207               0.00     1600.00
00208               0.00     1200.00
00209               0.00     1200.00
00210              -2.00     1000.00
00211              -2.00      800.00
00212              -2.00      600.00
00213               0.00      400.00
00214               0.00      200.00
00215               0.00        0.00
00216               6.00     -200.00
00217               4.00     -400.00
00218              20.00     -400.00
00219              22.00     -800.00
00220              -4.00    -1000.00
00221             -16.00    -1000.00
00222               6.00    -1200.00
00223              16.00    -1200.00
00224              14.00    -1600.00
00225              54.00    -1600.00
00226             224.00    -1800.00
00227             158.00    -2400.00
00228            -248.00    -2600.00
00229            -248.00    -2600.00
00230              28.00    -2800.00
00231             148.00    -2800.00
00232             252.00    -2800.00
00233             252.00    -3400.00
00234            -248.00    -3400.00
00235            -248.00    -3200.00
00236             252.00    -4400.00
00237             118.00    -3600.00
00238            -248.00    -3800.00
00239              48.00    -4600.00
00240             118.00    -4200.00
00241              82.00    -4400.00
00242               8.00    -5000.00
00243            -210.00    -4600.00
00244              34.00    -5200.00
00245             148.00    -5400.00
00246              20.00    -5000.00
00247             -50.00    -5600.00
00248            -130.00    -5800.00
00249              76.00    -5800.00
00250             156.00    -6000.00
00251             -64.00    -6200.00
00252            -104.00    -6400.00
00253               6.00    -6400.00
00254              92.00    -6800.00
00255              38.00    -6800.00
00256             -68.00    -6800.00
00257             -42.00    -7400.00
00258              32.00    -7200.00
00259              68.00    -7400.00
00260             -18.00    -7400.00
00261             -50.00    -7600.00
00262              40.00    -7800.00
00263              16.00    -8000.00
00264             -10.00    -8200.00
00265              -8.00    -8200.00
00266             -16.00    -8200.00
00267              42.00    -8600.00
00268              26.00    -8800.00
00269             -40.00    -8800.00
00270             -20.00    -9000.00
00271              22.00    -9000.00
00272              22.00    -9200.00
00273               2.00    -9200.00
00274              -8.00    -9200.00
00275             -10.00    -9600.00
00276              10.00    -9600.00
00277              14.00    -9600.00
00278             -20.00    -9600.00
00279              -2.00    -9800.00
00280              22.00   -10000.00
00281               0.00    -9800.00
00282             -10.00   -10200.00
00283              -4.00   -10200.00
00284              -2.00   -10000.00
00285               6.00   -10400.00
00286              10.00   -10400.00
00287              -4.00   -10400.00
00288              -2.00   -10600.00
00289               6.00   -10600.00
00290              -4.00   -10600.00
00291              -4.00   -10800.00
00292               4.00   -10600.00
00293               4.00   -10800.00
00294               6.00   -10800.00
00295               6.00   -10800.00
00296             -12.00   -10800.00
00297              -8.00   -11000.00
00298              12.00   -11000.00
00299               6.00   -11000.00
00300               4.00   -11200.00
00301               4.00   -11200.00
00302             -10.00   -11400.00
00303              -4.00   -11200.00
00304               6.00   -11200.00
00305               2.00   -11200.00
00306              -2.00   -11200.00
00307               4.00   -11200.00
00308               0.00   -11200.00
00309              -4.00   -11200.00
00310               0.00   -11400.00
00311               0.00   -11400.00
00312              -2.00   -11200.00
00313               6.00   -11400.00
00314               4.00   -11400.00
00315              -2.00   -11400.00
00316               0.00   -11200.00
00317              -4.00   -11200.00
00318              -4.00   -11400.00
00319               6.00   -11200.00
00320               6.00   -11200.00
00321              -2.00   -11200.00
00322              -2.00   -11200.00
00323              -4.00   -11200.00
00324              -4.00   -11000.00
00325               0.00   -10800.00
00326               6.00   -10800.00
00327               0.00   -10800.00
00328               0.00   -10800.00
00329              -4.00   -10800.00
00330              -4.00   -10800.00
00331              -4.00   -10600.00
00332              -2.00   -10600.00
00333              -2.00   -10600.00
00334               0.00   -10400.00
00335              -4.00   -10400.00
00336              -8.00   -10400.00
00337              -4.00   -10400.00
00338              -2.00   -10400.00
00339              -2.00   -10200.00
00340               0.00   -10000.00
00341              -2.00    -9800.00
00342              -4.00   -10000.00
00343              -8.00    -9800.00
00344              -4.00    -9600.00
00345              -4.00    -9800.00
00346              -4.00    -9600.00
00347               0.00    -9400.00
00348              -4.00    -9400.00
00349              -8.00    -9200.00
00350              -6.00    -9200.00
00351              -6.00    -9000.00
00352              -2.00    -8800.00
00353              -2.00    -8800.00
00354              -2.00    -8600.00
00355              -4.00    -8400.00
00356              -4.00    -8400.00
00357              -4.00    -8200.00
00358              -4.00    -8000.00
00359              -2.00    -8000.00
00360               0.00    -8000.00
00361              -2.00    -7800.00
00362              -4.00    -7600.00
00363              -8.00    -7400.00
00364              -4.00    -7400.00
00365              -4.00    -7400.00
00366              -2.00    -7200.00
00367              -2.00    -6800.00
00368              -2.00    -6800.00
00369              -4.00    -6600.00
00370              -4.00    -6400.00
00371              -4.00    -6400.00
00372              -2.00    -6200.00
00373               0.00    -6000.00
00374              -2.00    -5800.00
00375              -8.00    -5600.00
00376             -10.00    -5200.00
00377              -2.00    -5200.00
00378              -2.00    -5200.00
00379               0.00    -5000.00
00380              -2.00    -4800.00
00381             -10.00    -4800.00
00382              -8.00    -4400.00
00383               2.00    -4200.00
00384              -4.00    -4200.00
00385              -8.00    -4000.00
00386              -4.00    -3800.00
00387              -8.00    -3600.00
00388              -4.00    -3600.00
00389               0.00    -3200.00
00390              -8.00    -3200.00
00391             -10.00    -2800.00
00392              -2.00    -2600.00
00393              -4.00    -2600.00
00394              -2.00    -2400.00
00395              -4.00    -2400.00
00396              -8.00    -2000.00
00397             -10.00    -1800.00
00398              -8.00    -1800.00
00399              -4.00    -1600.00
00400              -4.00    -1200.00
00401              -2.00    -1200.00
00402              -8.00     -800.00
00403             -10.00     -800.00
00404              -8.00     -400.00
00405              -4.00     -400.00
00406              -4.00     -200.00
00407               0.00        0.00
00408              -2.00      400.00
00409               4.00      400.00
00410              22.00      400.00
00411               0.00      600.00
00412             -20.00      800.00
00413              -8.00     1000.00
00414              12.00     1000.00
00415              10.00     1200.00
00416              70.00     1600.00
00417             252.00     2000.00
00418              52.00     2200.00
00419            -248.00     2200.00
00420            -248.00     2400.00
00421              64.00     2400.00
00422             252.00     2600.00
00423             252.00     2800.00
00424            -248.00     2800.00
00425            -248.00     3200.00
00426             252.00     3400.00
00427             252.00     3600.00
00428            -248.00     3800.00
00429              -4.00     3600.00
00430             252.00     4000.00
00431            -204.00     4400.00
00432             174.00     4000.00
00433            -114.00     4800.00
00434            -196.00     4800.00
00435             252.00     4600.00
00436             -84.00     5600.00
00437             -88.00     5200.00
00438              92.00     5200.00
00439            -146.00     6200.00
00440             100.00     5600.00
00441             100.00     5600.00
00442            -114.00     6400.00
00443             -66.00     5800.00
00444              12.00     6400.00
00445             134.00     6800.00
00446             -96.00     6400.00
00447             -60.00     7000.00
00448             120.00     7000.00
00449            -114.00     7000.00
00450              22.00     7000.00
00451              62.00     7600.00
00452             -84.00     7600.00
00453              52.00     7400.00
00454             -10.00     8000.00
00455             -56.00     7800.00
00456              16.00     8000.00
00457              30.00     8400.00
00458              -4.00     8000.00
00459             -50.00     8400.00
00460              30.00     8600.00
00461             -26.00     8400.00
00462             -20.00     8800.00
00463              62.00     8800.00
00464             -58.00     9000.00
00465             -20.00     8800.00
00466              54.00     9200.00
00467             -34.00     9400.00
00468             -20.00     9200.00
00469              10.00     9600.00
00470              -4.00     9600.00
00471             -10.00     9600.00
00472               6.00    10000.00
00473             -20.00     9800.00
00474             -18.00    10000.00
00475              28.00    10000.00
00476             -18.00    10000.00
00477             -26.00    10200.00
00478              20.00    10200.00
00479             -12.00    10200.00
00480             -12.00    10400.00
00481              12.00    10400.00
00482             -22.00    10600.00
00483             -18.00    10400.00
00484              22.00    10800.00
00485              -2.00    10800.00
00486             -24.00    10800.00
00487               0.00    10800.00
00488              -4.00    11000.00
00489             -12.00    10800.00
00490              10.00    10800.00
00491              -4.00    11000.00
00492             -12.00    11200.00
00493               4.00    11000.00
00494              -8.00    11200.00
00495             -12.00    11000.00
00496               2.00    11200.00
00497              -4.00    11200.00
00498             -10.00    11200.00
00499               6.00    11200.00
00500              -8.00    11200.00
00501             -16.00    11000.00
00502               4.00    11200.00
00503              -2.00    11200.00
00504             -10.00    11200.00
00505               0.00    11200.00
00506              -2.00    11200.00
00507             -12.00    11200.00
00508               0.00    11200.00
00509              -2.00    11200.00
00510             -10.00    11000.00
00511              -2.00    11000.00
00512               0.00    11000.00
00513              -8.00    11000.00
00514              -4.00    11000.00
00515              -4.00    11000.00
00516              -6.00    10800.00
00517               2.00    10800.00
00518               0.00    10800.00
00519              -8.00    10600.00
00520              -4.00    10600.00
00521              -4.00    10800.00
00522              -8.00    10400.00
00523               0.00    10600.00
00524               0.00    10400.00
