Unit:(mV)
                     CH1         CH2
Frequency              ? 299.119 kHz
00001             160.00    -2200.00
00002             720.00    -2600.00
00003            1180.00    -3000.00
00004             340.00    -3200.00
00005            -800.00    -3400.00
00006           -1060.00    -3600.00
00007            -780.00    -3800.00
00008            -740.00    -4000.00
00009            -260.00    -4200.00
00010             560.00    -5000.00
00011             320.00    -4600.00
00012             420.00    -5000.00
00013              80.00    -5600.00
00014              20.00    -5200.00
00015             320.00    -6000.00
00016              60.00    -6000.00
00017             140.00    -6600.00
00018              80.00    -6600.00
00019             -20.00    -6600.00
00020            -100.00    -7400.00
00021              80.00    -7000.00
00022             140.00    -7600.00
00023             -80.00    -7600.00
00024             140.00    -8000.00
00025             180.00    -8200.00
00026              80.00    -8200.00
00027              60.00    -9000.00
00028             180.00    -8600.00
00029             160.00    -9000.00
00030              60.00    -9200.00
00031             100.00    -9400.00
00032             140.00    -9800.00
00033             100.00    -9800.00
00034             140.00   -10200.00
00035             220.00   -10200.00
00036             160.00   -10600.00
00037             140.00   -10800.00
00038             220.00   -11000.00
00039             220.00   -11000.00
00040             180.00   -11400.00
00041             220.00   -11600.00
00042             240.00   -11400.00
00043             180.00   -11800.00
00044             220.00   -11800.00
00045             320.00   -12000.00
00046             300.00   -12200.00
00047             260.00   -12400.00
00048             320.00   -12600.00
00049             340.00   -12400.00
00050             320.00   -13000.00
00051             340.00   -13000.00
00052             400.00   -13000.00
00053             340.00   -13000.00
00054             380.00   -13200.00
00055             460.00   -13400.00
00056             480.00   -13400.00
00057             500.00   -13400.00
00058             540.00   -13800.00
00059             560.00   -13600.00
00060             560.00   -13600.00
00061             580.00   -14000.00
00062             640.00   -13800.00
00063             660.00   -14200.00
00064             720.00   -14000.00
00065             780.00   -14200.00
00066             800.00   -14200.00
00067             820.00   -14200.00
00068             900.00   -14400.00
00069             960.00   -14400.00
00070            1020.00   -14400.00
00071            1080.00   -14600.00
00072            1160.00   -14400.00
00073            1220.00   -14600.00
00074            1280.00   -14600.00
00075            1400.00   -14400.00
00076            1500.00   -14600.00
00077            1600.00   -14600.00
00078            1740.00   -14600.00
00079            1880.00   -14600.00
00080            1980.00   -14400.00
00081            2080.00   -14600.00
00082            2180.00   -14400.00
00083            2260.00   -14200.00
00084            2320.00   -14200.00
00085            2400.00   -14200.00
00086            2420.00   -14000.00
00087            2420.00   -14000.00
00088            2400.00   -14200.00
00089            2380.00   -14000.00
00090            2340.00   -14000.00
00091            2260.00   -13600.00
00092            2160.00   -13800.00
00093            2060.00   -13600.00
00094            1920.00   -13600.00
00095            1820.00   -13400.00
00096            1700.00   -13400.00
00097            1600.00   -13400.00
00098            1500.00   -13200.00
00099            1360.00   -13000.00
00100            1260.00   -13000.00
00101            1160.00   -12800.00
00102            1060.00   -12800.00
00103             980.00   -12600.00
00104             920.00   -12400.00
00105             860.00   -12200.00
00106             780.00   -12200.00
00107             700.00   -12000.00
00108             660.00   -12000.00
00109             620.00   -11800.00
00110             580.00   -11600.00
00111             540.00   -11400.00
00112             500.00   -11200.00
00113             480.00   -11000.00
00114             440.00   -10800.00
00115             400.00   -10800.00
00116             380.00   -10600.00
00117             360.00   -10200.00
00118             340.00   -10200.00
00119             340.00    -9800.00
00120             320.00    -9800.00
00121             300.00    -9400.00
00122             300.00    -9200.00
00123             260.00    -9200.00
00124             280.00    -9000.00
00125             240.00    -8600.00
00126             240.00    -8600.00
00127             220.00    -8200.00
00128             200.00    -8000.00
00129             200.00    -7800.00
00130             180.00    -7600.00
00131             220.00    -7200.00
00132             180.00    -7200.00
00133             180.00    -7000.00
00134             160.00    -6600.00
00135             180.00    -6600.00
00136             160.00    -6200.00
00137             160.00    -6000.00
00138             140.00    -5800.00
00139             140.00    -5600.00
00140             140.00    -5200.00
00141             140.00    -5000.00
00142             100.00    -4600.00
00143             140.00    -4400.00
00144             140.00    -4200.00
00145             120.00    -3800.00
00146             140.00    -3600.00
00147             100.00    -3400.00
00148             100.00    -3000.00
00149             100.00    -2800.00
00150             140.00    -2600.00
00151              80.00    -2200.00
00152             100.00    -2000.00
00153             100.00    -1800.00
00154              80.00    -1400.00
00155             100.00    -1400.00
00156             100.00     -800.00
00157              80.00     -600.00
00158              80.00     -400.00
00159              80.00        0.00
00160              80.00      200.00
00161             100.00      400.00
00162             180.00      600.00
00163             260.00      800.00
00164             240.00     1200.00
00165             180.00     1400.00
00166             140.00     1600.00
00167             160.00     1800.00
00168             380.00     2200.00
00169            1260.00     2800.00
00170            1280.00     2800.00
00171             -80.00     3000.00
00172           -1260.00     3200.00
00173           -1180.00     3400.00
00174           -1040.00     4000.00
00175            -420.00     4200.00
00176             800.00     4200.00
00177             420.00     4400.00
00178             400.00     5000.00
00179               0.00     4600.00
00180            -160.00     5600.00
00181             280.00     5800.00
00182            -160.00     5400.00
00183             180.00     6200.00
00184             140.00     6200.00
00185            -100.00     6800.00
00186            -220.00     6600.00
00187            -100.00     7000.00
00188             140.00     7600.00
00189            -160.00     7000.00
00190              60.00     7800.00
00191             -20.00     7800.00
00192             -60.00     8200.00
00193            -140.00     8400.00
00194             -60.00     8600.00
00195             -60.00     9000.00
00196            -160.00     8800.00
00197             -80.00     9400.00
00198            -160.00     9400.00
00199            -100.00     9800.00
00200            -220.00    10000.00
00201             -20.00    10200.00
00202            -140.00    10200.00
00203            -160.00    10600.00
00204            -160.00    10800.00
00205            -180.00    11000.00
00206            -220.00    11000.00
00207            -180.00    11200.00
00208            -180.00    11400.00
00209            -260.00    11600.00
00210            -260.00    11600.00
00211            -240.00    12000.00
00212            -240.00    12000.00
00213            -260.00    12200.00
00214            -300.00    12200.00
00215            -340.00    12400.00
00216            -340.00    12600.00
00217            -320.00    12800.00
00218            -320.00    13000.00
00219            -360.00    13000.00
00220            -420.00    13000.00
00221            -420.00    13400.00
00222            -420.00    13400.00
00223            -460.00    13400.00
00224            -420.00    13800.00
00225            -480.00    13800.00
00226            -560.00    13800.00
00227            -580.00    13800.00
00228            -620.00    13800.00
00229            -660.00    14000.00
00230            -660.00    14000.00
00231            -700.00    14200.00
00232            -740.00    14000.00
00233            -800.00    14000.00
00234            -860.00    14200.00
00235            -900.00    14400.00
00236            -960.00    14200.00
00237           -1020.00    14200.00
00238           -1060.00    14400.00
00239           -1140.00    14400.00
00240           -1240.00    14400.00
00241           -1300.00    14600.00
00242           -1380.00    14400.00
00243           -1500.00    14600.00
00244           -1580.00    14400.00
00245           -1700.00    14400.00
00246           -1840.00    14400.00
00247           -1940.00    14600.00
00248           -2080.00    14400.00
00249           -2180.00    14200.00
00250           -2260.00    14200.00
00251           -2320.00    14200.00
00252           -2400.00    14200.00
00253           -2420.00    14200.00
00254           -2460.00    14000.00
00255           -2420.00    14000.00
00256           -2400.00    14000.00
00257           -2340.00    13800.00
00258           -2260.00    13800.00
00259           -2180.00    13800.00
00260           -2080.00    13600.00
00261           -1980.00    13600.00
00262           -1860.00    13400.00
00263           -1760.00    13400.00
00264           -1620.00    13400.00
00265           -1500.00    13200.00
00266           -1400.00    13200.00
00267           -1300.00    13000.00
00268           -1200.00    12800.00
00269           -1100.00    12800.00
00270           -1020.00    12600.00
00271            -940.00    12400.00
00272            -880.00    12400.00
00273            -800.00    12200.00
00274            -740.00    12200.00
00275            -700.00    11800.00
00276            -640.00    11800.00
00277            -580.00    11600.00
00278            -560.00    11400.00
00279            -500.00    11400.00
00280            -480.00    11000.00
00281            -480.00    11000.00
00282            -440.00    10800.00
00283            -420.00    10400.00
00284            -380.00    10600.00
00285            -340.00    10200.00
00286            -340.00     9800.00
00287            -340.00     9800.00
00288            -320.00     9800.00
00289            -320.00     9400.00
00290            -260.00     9200.00
00291            -260.00     9000.00
00292            -260.00     8600.00
00293            -260.00     8600.00
00294            -260.00     8200.00
00295            -260.00     8200.00
00296            -240.00     7800.00
00297            -220.00     7600.00
00298            -220.00     7400.00
00299            -220.00     7200.00
00300            -220.00     6800.00
00301            -180.00     6600.00
00302            -180.00     6600.00
00303            -220.00     6200.00
00304            -180.00     6000.00
00305            -160.00     5800.00
00306            -160.00     5400.00
00307            -160.00     5200.00
00308            -160.00     5000.00
00309            -160.00     4600.00
00310            -180.00     4400.00
00311            -140.00     4200.00
00312            -140.00     3800.00
00313            -120.00     3600.00
00314            -140.00     3400.00
00315            -140.00     3000.00
00316            -100.00     2800.00
00317            -140.00     2600.00
00318            -100.00     2200.00
00319            -100.00     2000.00
00320            -100.00     1800.00
00321             -80.00     1400.00
00322            -100.00     1000.00
00323            -100.00     1000.00
00324            -100.00      600.00
00325            -100.00      400.00
00326            -100.00      200.00
00327             -80.00     -200.00
00328             -20.00     -400.00
00329              80.00     -600.00
00330             160.00    -1000.00
00331             140.00    -1000.00
00332              60.00    -1400.00
00333               0.00    -1600.00
00334              20.00    -1800.00
00335             140.00    -2200.00
00336             500.00    -2200.00
00337            1180.00    -2800.00
00338             700.00    -3200.00
00339            -540.00    -3400.00
00340           -1100.00    -3600.00
00341            -840.00    -3600.00
00342            -720.00    -4000.00
00343            -540.00    -3800.00
00344             420.00    -4600.00
00345             400.00    -4600.00
00346             360.00    -4600.00
00347             180.00    -5600.00
00348             -80.00    -5200.00
00349             320.00    -5800.00
00350             160.00    -6000.00
00351             140.00    -6200.00
00352             140.00    -6600.00
00353             -20.00    -6200.00
00354            -140.00    -7400.00
00355             -40.00    -7000.00
00356             160.00    -7400.00
00357               0.00    -7800.00
00358              80.00    -8000.00
00359             220.00    -8200.00
00360              80.00    -8200.00
00361               0.00    -8800.00
00362             100.00    -8800.00
00363             200.00    -9000.00
00364              80.00    -9400.00
00365             100.00    -9400.00
00366             140.00    -9800.00
00367             120.00    -9600.00
00368             100.00   -10200.00
00369             160.00   -10000.00
00370             180.00   -10400.00
00371             160.00   -10800.00
00372             220.00   -11000.00
00373             240.00   -11000.00
00374             160.00   -11200.00
00375             160.00   -11400.00
00376             240.00   -11400.00
00377             220.00   -11800.00
00378             220.00   -11800.00
00379             260.00   -12000.00
00380             300.00   -12200.00
00381             260.00   -12200.00
00382             300.00   -12400.00
00383             320.00   -12400.00
00384             300.00   -12600.00
00385             340.00   -13000.00
00386             400.00   -13000.00
00387             400.00   -13200.00
00388             380.00   -13200.00
00389             420.00   -13200.00
00390             460.00   -13400.00
00391             460.00   -13400.00
00392             520.00   -13600.00
00393             560.00   -13400.00
00394             560.00   -13800.00
00395             560.00   -13800.00
00396             620.00   -13800.00
00397             640.00   -14000.00
00398             700.00   -14000.00
00399             780.00   -14200.00
00400             800.00   -14200.00
00401             820.00   -14200.00
00402             880.00   -14200.00
00403             940.00   -14400.00
00404            1000.00   -14200.00
00405            1060.00   -14400.00
00406            1180.00   -14600.00
00407            1220.00   -14400.00
00408            1260.00   -14600.00
00409            1380.00   -14400.00
00410            1460.00   -14400.00
00411            1580.00   -14600.00
00412            1700.00   -14600.00
00413            1820.00   -14600.00
00414            1920.00   -14400.00
00415            2020.00   -14600.00
00416            2140.00   -14200.00
00417            2240.00   -14600.00
00418            2320.00   -14400.00
00419            2400.00   -14200.00
00420            2420.00   -14200.00
00421            2420.00   -14200.00
00422            2400.00   -14200.00
00423            2400.00   -14000.00
00424            2340.00   -14000.00
00425            2300.00   -13800.00
00426            2220.00   -13800.00
00427            2080.00   -13600.00
00428            1980.00   -13600.00
00429            1860.00   -13600.00
00430            1760.00   -13400.00
00431            1620.00   -13400.00
00432            1520.00   -13400.00
00433            1420.00   -13200.00
00434            1280.00   -13000.00
00435            1180.00   -12800.00
00436            1100.00   -12600.00
00437            1000.00   -12600.00
00438             940.00   -12400.00
00439             860.00   -12400.00
00440             800.00   -12200.00
00441             720.00   -12200.00
00442             640.00   -11800.00
00443             620.00   -11800.00
00444             560.00   -11600.00
00445             540.00   -11400.00
00446             500.00   -11400.00
00447             480.00   -11200.00
00448             420.00   -11000.00
00449             400.00   -10800.00
00450             400.00   -10600.00
00451             380.00   -10600.00
00452             380.00   -10200.00
00453             320.00   -10000.00
00454             320.00    -9800.00
00455             280.00    -9800.00
00456             260.00    -9400.00
00457             260.00    -9200.00
00458             260.00    -9200.00
00459             260.00    -8800.00
00460             240.00    -8600.00
00461             220.00    -8400.00
00462             200.00    -8200.00
00463             220.00    -7800.00
00464             200.00    -7800.00
00465             180.00    -7200.00
00466             200.00    -7000.00
00467             180.00    -7000.00
00468             160.00    -6600.00
00469             160.00    -6600.00
00470             160.00    -6400.00
00471             160.00    -6000.00
00472             160.00    -5800.00
00473             160.00    -5400.00
00474             140.00    -5200.00
00475             140.00    -5000.00
00476             140.00    -4600.00
00477             140.00    -4600.00
00478             140.00    -4200.00
00479             120.00    -3800.00
00480             140.00    -3600.00
00481             100.00    -3400.00
00482             140.00    -3000.00
00483             100.00    -2800.00
00484             100.00    -2600.00
00485             100.00    -2400.00
00486             100.00    -2200.00
00487              80.00    -1800.00
00488              80.00    -1600.00
00489             100.00    -1400.00
00490              80.00    -1000.00
00491              80.00     -600.00
00492             100.00     -400.00
00493              80.00     -200.00
00494              80.00      200.00
00495             100.00      400.00
00496             160.00      600.00
00497             240.00      800.00
00498             240.00     1000.00
00499             220.00     1200.00
00500             160.00     1600.00
00501             140.00     1600.00
00502             260.00     2200.00
00503             960.00     2600.00
00504            1460.00     2800.00
00505             400.00     3000.00
00506           -1020.00     3200.00
00507           -1320.00     3400.00
00508           -1020.00     3800.00
00509            -800.00     4000.00
00510             540.00     4200.00
00511             620.00     4200.00
00512             380.00     5000.00
00513             180.00     4600.00
00514            -260.00     5200.00
00515             300.00     6000.00
00516             -80.00     5400.00
00517               0.00     6200.00
00518             240.00     6000.00
00519             -80.00     6400.00
00520            -180.00     6800.00
00521            -220.00     6600.00
00522             140.00     7600.00
00523            -100.00     7000.00
00524             -20.00     7600.00
