Unit:(mV)
                     CH1         CH2
Frequency              ? 299.025 kHz
00001             260.00    -1800.00
00002             720.00    -2200.00
00003             540.00    -2600.00
00004            -220.00    -2600.00
00005            -500.00    -2800.00
00006            -360.00    -3000.00
00007            -400.00    -2800.00
00008             140.00    -3000.00
00009             400.00    -3800.00
00010            -200.00    -3400.00
00011             180.00    -4000.00
00012             180.00    -4200.00
00013               0.00    -3800.00
00014             260.00    -4600.00
00015              80.00    -4600.00
00016             220.00    -4600.00
00017             260.00    -5400.00
00018               0.00    -5200.00
00019             100.00    -5800.00
00020             140.00    -5400.00
00021             220.00    -6000.00
00022             160.00    -6000.00
00023             200.00    -6200.00
00024             180.00    -6600.00
00025             160.00    -6200.00
00026             300.00    -6800.00
00027             180.00    -7000.00
00028             220.00    -7000.00
00029             260.00    -7200.00
00030             220.00    -7400.00
00031             240.00    -7600.00
00032             260.00    -7600.00
00033             240.00    -8200.00
00034             260.00    -8200.00
00035             320.00    -8200.00
00036             260.00    -8600.00
00037             300.00    -8400.00
00038             340.00    -8600.00
00039             320.00    -8800.00
00040             320.00    -9000.00
00041             340.00    -9000.00
00042             320.00    -9200.00
00043             340.00    -9200.00
00044             400.00    -9400.00
00045             400.00    -9400.00
00046             400.00    -9600.00
00047             420.00    -9800.00
00048             440.00    -9800.00
00049             460.00   -10000.00
00050             500.00   -10000.00
00051             480.00   -10200.00
00052             500.00   -10400.00
00053             540.00   -10400.00
00054             540.00   -10400.00
00055             560.00   -10600.00
00056             620.00   -10600.00
00057             620.00   -10800.00
00058             640.00   -10600.00
00059             660.00   -10800.00
00060             660.00   -10800.00
00061             700.00   -11000.00
00062             740.00   -11000.00
00063             780.00   -10800.00
00064             800.00   -11000.00
00065             840.00   -11000.00
00066             860.00   -11000.00
00067             880.00   -11200.00
00068             940.00   -11200.00
00069             980.00   -11200.00
00070            1020.00   -11400.00
00071            1060.00   -11400.00
00072            1120.00   -11400.00
00073            1140.00   -11200.00
00074            1200.00   -11400.00
00075            1280.00   -11400.00
00076            1320.00   -11200.00
00077            1380.00   -11200.00
00078            1460.00   -11400.00
00079            1520.00   -11400.00
00080            1580.00   -11400.00
00081            1660.00   -11200.00
00082            1700.00   -11000.00
00083            1760.00   -11200.00
00084            1840.00   -11000.00
00085            1860.00   -11000.00
00086            1920.00   -11000.00
00087            1940.00   -11000.00
00088            1980.00   -11000.00
00089            1960.00   -10800.00
00090            1980.00   -10800.00
00091            2000.00   -10800.00
00092            1960.00   -10600.00
00093            1920.00   -10600.00
00094            1900.00   -10600.00
00095            1860.00   -10600.00
00096            1820.00   -10600.00
00097            1780.00   -10400.00
00098            1700.00   -10200.00
00099            1660.00   -10400.00
00100            1600.00   -10000.00
00101            1520.00   -10000.00
00102            1460.00   -10000.00
00103            1420.00    -9800.00
00104            1340.00    -9800.00
00105            1280.00    -9600.00
00106            1220.00    -9400.00
00107            1160.00    -9200.00
00108            1100.00    -9200.00
00109            1040.00    -9000.00
00110             980.00    -9000.00
00111             960.00    -9000.00
00112             880.00    -8600.00
00113             860.00    -8600.00
00114             800.00    -8400.00
00115             780.00    -8200.00
00116             720.00    -8200.00
00117             700.00    -8000.00
00118             660.00    -7800.00
00119             640.00    -7800.00
00120             620.00    -7600.00
00121             560.00    -7200.00
00122             560.00    -7200.00
00123             540.00    -7000.00
00124             500.00    -6800.00
00125             480.00    -6600.00
00126             460.00    -6600.00
00127             420.00    -6400.00
00128             420.00    -6200.00
00129             400.00    -6000.00
00130             380.00    -6000.00
00131             380.00    -5600.00
00132             360.00    -5400.00
00133             320.00    -5400.00
00134             320.00    -5000.00
00135             320.00    -5000.00
00136             320.00    -4600.00
00137             300.00    -4600.00
00138             300.00    -4400.00
00139             260.00    -3800.00
00140             260.00    -3800.00
00141             240.00    -3600.00
00142             220.00    -3400.00
00143             220.00    -3200.00
00144             220.00    -3000.00
00145             220.00    -2800.00
00146             200.00    -2800.00
00147             180.00    -2600.00
00148             180.00    -2200.00
00149             180.00    -2000.00
00150             160.00    -1800.00
00151             140.00    -1400.00
00152             140.00    -1400.00
00153             140.00    -1200.00
00154             140.00     -800.00
00155             140.00     -800.00
00156             120.00     -600.00
00157             140.00     -400.00
00158             100.00     -200.00
00159             100.00        0.00
00160             100.00      200.00
00161             140.00      400.00
00162             160.00      600.00
00163             160.00      800.00
00164             140.00     1000.00
00165             120.00     1200.00
00166             100.00     1400.00
00167             160.00     1600.00
00168             480.00     2000.00
00169             940.00     2200.00
00170             360.00     2400.00
00171            -560.00     2600.00
00172            -660.00     2400.00
00173            -620.00     3000.00
00174              20.00     3400.00
00175             660.00     3400.00
00176            -300.00     3400.00
00177            -140.00     3600.00
00178             260.00     3600.00
00179            -300.00     4600.00
00180               0.00     4400.00
00181             -20.00     4200.00
00182              20.00     5200.00
00183              80.00     4400.00
00184            -280.00     5200.00
00185             -60.00     5400.00
00186            -180.00     5200.00
00187             -80.00     6000.00
00188             -20.00     5800.00
00189            -220.00     6200.00
00190             -80.00     6200.00
00191            -180.00     6400.00
00192            -140.00     6800.00
00193            -160.00     6400.00
00194            -160.00     7200.00
00195            -180.00     7000.00
00196            -240.00     7200.00
00197            -160.00     7600.00
00198            -260.00     7400.00
00199            -240.00     7800.00
00200            -220.00     7800.00
00201            -180.00     8200.00
00202            -300.00     8000.00
00203            -260.00     8200.00
00204            -260.00     8600.00
00205            -320.00     8400.00
00206            -260.00     8800.00
00207            -320.00     8800.00
00208            -360.00     9000.00
00209            -360.00     9200.00
00210            -340.00     9400.00
00211            -380.00     9400.00
00212            -360.00     9400.00
00213            -400.00     9800.00
00214            -480.00     9600.00
00215            -420.00    10000.00
00216            -420.00    10000.00
00217            -460.00    10000.00
00218            -480.00    10200.00
00219            -500.00    10200.00
00220            -560.00    10200.00
00221            -540.00    10400.00
00222            -520.00    10600.00
00223            -580.00    10600.00
00224            -600.00    10600.00
00225            -640.00    10800.00
00226            -660.00    10800.00
00227            -700.00    10800.00
00228            -700.00    10800.00
00229            -740.00    11000.00
00230            -740.00    11000.00
00231            -760.00    11000.00
00232            -800.00    11000.00
00233            -860.00    11200.00
00234            -880.00    11200.00
00235            -900.00    11200.00
00236            -960.00    11400.00
00237            -980.00    11400.00
00238           -1060.00    11400.00
00239           -1100.00    11400.00
00240           -1140.00    11400.00
00241           -1180.00    11400.00
00242           -1260.00    11400.00
00243           -1300.00    11400.00
00244           -1360.00    11400.00
00245           -1420.00    11400.00
00246           -1520.00    11400.00
00247           -1580.00    11400.00
00248           -1660.00    11400.00
00249           -1700.00    11200.00
00250           -1760.00    11400.00
00251           -1800.00    11000.00
00252           -1840.00    11000.00
00253           -1900.00    11000.00
00254           -1920.00    11000.00
00255           -1960.00    11000.00
00256           -1960.00    11000.00
00257           -1980.00    10800.00
00258           -1980.00    10800.00
00259           -1980.00    10800.00
00260           -1940.00    10800.00
00261           -1920.00    10600.00
00262           -1860.00    10600.00
00263           -1820.00    10600.00
00264           -1760.00    10400.00
00265           -1740.00    10400.00
00266           -1680.00    10200.00
00267           -1600.00    10200.00
00268           -1540.00    10000.00
00269           -1460.00    10000.00
00270           -1420.00     9800.00
00271           -1360.00     9800.00
00272           -1300.00     9800.00
00273           -1220.00     9400.00
00274           -1180.00     9400.00
00275           -1100.00     9400.00
00276           -1040.00     9200.00
00277           -1020.00     9000.00
00278            -940.00     8800.00
00279            -900.00     8600.00
00280            -860.00     8600.00
00281            -820.00     8400.00
00282            -780.00     8200.00
00283            -740.00     8200.00
00284            -700.00     8000.00
00285            -660.00     8000.00
00286            -640.00     7600.00
00287            -620.00     7600.00
00288            -580.00     7400.00
00289            -560.00     7200.00
00290            -540.00     7000.00
00291            -500.00     7000.00
00292            -480.00     6800.00
00293            -480.00     6600.00
00294            -460.00     6400.00
00295            -420.00     6200.00
00296            -420.00     6000.00
00297            -400.00     5800.00
00298            -400.00     5800.00
00299            -380.00     5600.00
00300            -380.00     5400.00
00301            -340.00     5200.00
00302            -340.00     5000.00
00303            -320.00     4600.00
00304            -320.00     4400.00
00305            -300.00     4200.00
00306            -280.00     4200.00
00307            -260.00     3800.00
00308            -280.00     3800.00
00309            -240.00     3600.00
00310            -240.00     3400.00
00311            -240.00     3200.00
00312            -220.00     3000.00
00313            -220.00     2800.00
00314            -200.00     2400.00
00315            -180.00     2400.00
00316            -160.00     2000.00
00317            -160.00     1800.00
00318            -160.00     1800.00
00319            -160.00     1400.00
00320            -140.00     1200.00
00321            -140.00     1200.00
00322            -120.00      800.00
00323            -100.00      600.00
00324            -100.00      400.00
00325            -100.00      200.00
00326            -100.00        0.00
00327             -80.00     -200.00
00328             -20.00     -400.00
00329              20.00     -600.00
00330              60.00     -600.00
00331              20.00    -1000.00
00332              20.00    -1200.00
00333              20.00    -1400.00
00334              60.00    -1600.00
00335             140.00    -1800.00
00336             540.00    -1800.00
00337             740.00    -2400.00
00338             100.00    -2600.00
00339            -480.00    -2800.00
00340            -420.00    -3000.00
00341            -380.00    -2800.00
00342            -180.00    -2800.00
00343             480.00    -3600.00
00344               0.00    -3600.00
00345             -60.00    -3400.00
00346             320.00    -4400.00
00347             -20.00    -4200.00
00348             180.00    -4400.00
00349             160.00    -4600.00
00350             100.00    -4600.00
00351             320.00    -5200.00
00352              80.00    -5200.00
00353              40.00    -5600.00
00354             140.00    -5400.00
00355             160.00    -5800.00
00356             180.00    -6200.00
00357             140.00    -5800.00
00358             220.00    -6600.00
00359             140.00    -6600.00
00360             240.00    -6600.00
00361             240.00    -7000.00
00362             160.00    -7000.00
00363             280.00    -7200.00
00364             220.00    -7200.00
00365             220.00    -7600.00
00366             260.00    -7600.00
00367             240.00    -7800.00
00368             240.00    -8000.00
00369             320.00    -8000.00
00370             300.00    -8200.00
00371             260.00    -8400.00
00372             320.00    -8600.00
00373             340.00    -8600.00
00374             320.00    -9000.00
00375             340.00    -9000.00
00376             360.00    -9000.00
00377             320.00    -9200.00
00378             400.00    -9400.00
00379             400.00    -9400.00
00380             380.00    -9800.00
00381             420.00    -9800.00
00382             460.00    -9800.00
00383             440.00    -9800.00
00384             480.00   -10000.00
00385             500.00   -10000.00
00386             500.00   -10200.00
00387             520.00   -10200.00
00388             540.00   -10400.00
00389             560.00   -10600.00
00390             580.00   -10600.00
00391             640.00   -10600.00
00392             640.00   -10800.00
00393             640.00   -10800.00
00394             700.00   -10800.00
00395             700.00   -10800.00
00396             720.00   -10800.00
00397             780.00   -11000.00
00398             800.00   -11000.00
00399             800.00   -11000.00
00400             860.00   -11000.00
00401             860.00   -11000.00
00402             900.00   -11000.00
00403             960.00   -11400.00
00404            1020.00   -11400.00
00405            1020.00   -11200.00
00406            1100.00   -11400.00
00407            1120.00   -11200.00
00408            1180.00   -11200.00
00409            1220.00   -11400.00
00410            1300.00   -11200.00
00411            1360.00   -11400.00
00412            1440.00   -11200.00
00413            1460.00   -11400.00
00414            1560.00   -11400.00
00415            1600.00   -11200.00
00416            1680.00   -11200.00
00417            1760.00   -11000.00
00418            1780.00   -11000.00
00419            1860.00   -11000.00
00420            1900.00   -11000.00
00421            1920.00   -11000.00
00422            1940.00   -11000.00
00423            1980.00   -11000.00
00424            1980.00   -11000.00
00425            1980.00   -10800.00
00426            1980.00   -10800.00
00427            1940.00   -10800.00
00428            1900.00   -10600.00
00429            1860.00   -10600.00
00430            1840.00   -10600.00
00431            1820.00   -10600.00
00432            1760.00   -10400.00
00433            1660.00   -10200.00
00434            1600.00   -10000.00
00435            1540.00   -10000.00
00436            1480.00    -9800.00
00437            1440.00   -10000.00
00438            1360.00    -9800.00
00439            1300.00    -9800.00
00440            1260.00    -9400.00
00441            1180.00    -9400.00
00442            1120.00    -9400.00
00443            1060.00    -9200.00
00444            1020.00    -9000.00
00445             960.00    -9000.00
00446             900.00    -8800.00
00447             860.00    -8600.00
00448             820.00    -8400.00
00449             800.00    -8400.00
00450             740.00    -8200.00
00451             720.00    -8200.00
00452             700.00    -7800.00
00453             640.00    -7600.00
00454             620.00    -7600.00
00455             580.00    -7400.00
00456             560.00    -7200.00
00457             540.00    -7000.00
00458             520.00    -6800.00
00459             500.00    -6800.00
00460             460.00    -6600.00
00461             460.00    -6400.00
00462             420.00    -6200.00
00463             420.00    -6000.00
00464             380.00    -5800.00
00465             380.00    -5800.00
00466             380.00    -5400.00
00467             340.00    -5400.00
00468             320.00    -5200.00
00469             320.00    -5000.00
00470             320.00    -4800.00
00471             320.00    -4600.00
00472             280.00    -4400.00
00473             260.00    -4200.00
00474             260.00    -4000.00
00475             240.00    -3800.00
00476             240.00    -3400.00
00477             240.00    -3400.00
00478             220.00    -3200.00
00479             220.00    -3000.00
00480             220.00    -2800.00
00481             180.00    -2600.00
00482             180.00    -2400.00
00483             160.00    -2200.00
00484             160.00    -2000.00
00485             160.00    -1800.00
00486             140.00    -1600.00
00487             140.00    -1400.00
00488             140.00    -1200.00
00489             120.00     -800.00
00490             100.00     -600.00
00491             100.00     -400.00
00492             100.00     -400.00
00493              80.00        0.00
00494              80.00      200.00
00495             100.00      400.00
00496             160.00      600.00
00497             160.00      600.00
00498             160.00      800.00
00499             100.00     1000.00
00500             120.00     1400.00
00501             100.00     1400.00
00502             300.00     1800.00
00503             820.00     2000.00
00504             740.00     2200.00
00505            -220.00     2400.00
00506            -740.00     2600.00
00507            -620.00     2800.00
00508            -400.00     3000.00
00509             580.00     3400.00
00510             160.00     3200.00
00511            -400.00     3800.00
00512             260.00     3600.00
00513            -100.00     4000.00
00514            -180.00     4600.00
00515              80.00     3800.00
00516             -80.00     5000.00
00517             160.00     5000.00
00518            -180.00     4600.00
00519            -160.00     5800.00
00520             -80.00     5200.00
00521            -220.00     5800.00
00522              20.00     5800.00
00523            -160.00     5800.00
00524            -120.00     6400.00
