Unit:(mV)
                     CH1         CH2
Frequency              ? 299.115 kHz
00001             320.00    -2200.00
00002            1000.00    -2600.00
00003            1000.00    -3000.00
00004            -160.00    -3200.00
00005            -960.00    -3400.00
00006            -840.00    -3600.00
00007            -600.00    -4000.00
00008            -680.00    -3800.00
00009             160.00    -4400.00
00010             520.00    -5000.00
00011             280.00    -4400.00
00012             440.00    -5400.00
00013              40.00    -5200.00
00014             240.00    -5400.00
00015             280.00    -6200.00
00016             160.00    -5800.00
00017             280.00    -6600.00
00018              40.00    -6600.00
00019              40.00    -7000.00
00020             120.00    -7000.00
00021             160.00    -7400.00
00022             120.00    -7800.00
00023             160.00    -7200.00
00024             280.00    -8400.00
00025             200.00    -8200.00
00026             280.00    -8600.00
00027             200.00    -8600.00
00028             280.00    -8800.00
00029             280.00    -9200.00
00030             200.00    -9200.00
00031             160.00    -9600.00
00032             280.00    -9400.00
00033             320.00    -9800.00
00034             280.00   -10000.00
00035             320.00   -10200.00
00036             360.00   -10600.00
00037             320.00   -10800.00
00038             360.00   -11000.00
00039             400.00   -11000.00
00040             360.00   -11400.00
00041             400.00   -11400.00
00042             400.00   -11600.00
00043             400.00   -11800.00
00044             440.00   -11800.00
00045             440.00   -12200.00
00046             480.00   -12200.00
00047             440.00   -12200.00
00048             480.00   -12400.00
00049             480.00   -12600.00
00050             520.00   -12600.00
00051             560.00   -12800.00
00052             600.00   -13000.00
00053             600.00   -13200.00
00054             600.00   -13200.00
00055             600.00   -13400.00
00056             680.00   -13400.00
00057             680.00   -13400.00
00058             720.00   -13600.00
00059             760.00   -13800.00
00060             760.00   -13800.00
00061             760.00   -13600.00
00062             840.00   -14000.00
00063             920.00   -13800.00
00064             920.00   -14000.00
00065             960.00   -14000.00
00066            1000.00   -14000.00
00067            1080.00   -14200.00
00068            1120.00   -14200.00
00069            1160.00   -14200.00
00070            1240.00   -14200.00
00071            1320.00   -14400.00
00072            1400.00   -14200.00
00073            1440.00   -14200.00
00074            1520.00   -14600.00
00075            1600.00   -14400.00
00076            1720.00   -14600.00
00077            1840.00   -14400.00
00078            1920.00   -14600.00
00079            2040.00   -14200.00
00080            2160.00   -14200.00
00081            2240.00   -14400.00
00082            2360.00   -14200.00
00083            2440.00   -14200.00
00084            2560.00   -14200.00
00085            2560.00   -14000.00
00086            2560.00   -14200.00
00087            2560.00   -14000.00
00088            2560.00   -14000.00
00089            2560.00   -13600.00
00090            2440.00   -13800.00
00091            2400.00   -13600.00
00092            2280.00   -13600.00
00093            2240.00   -13800.00
00094            2080.00   -13600.00
00095            1920.00   -13400.00
00096            1880.00   -13200.00
00097            1760.00   -13200.00
00098            1640.00   -13000.00
00099            1480.00   -13000.00
00100            1400.00   -12800.00
00101            1320.00   -12800.00
00102            1240.00   -12600.00
00103            1160.00   -12400.00
00104            1080.00   -12400.00
00105            1000.00   -12200.00
00106             960.00   -12000.00
00107             840.00   -11800.00
00108             760.00   -11800.00
00109             800.00   -11600.00
00110             680.00   -11600.00
00111             680.00   -11400.00
00112             640.00   -11200.00
00113             640.00   -10800.00
00114             600.00   -10800.00
00115             600.00   -10600.00
00116             520.00   -10400.00
00117             520.00   -10000.00
00118             520.00   -10000.00
00119             480.00    -9800.00
00120             440.00    -9600.00
00121             440.00    -9400.00
00122             440.00    -9200.00
00123             400.00    -9000.00
00124             440.00    -8800.00
00125             360.00    -8600.00
00126             320.00    -8400.00
00127             320.00    -8200.00
00128             320.00    -8000.00
00129             320.00    -7800.00
00130             320.00    -7400.00
00131             320.00    -7200.00
00132             320.00    -7000.00
00133             280.00    -6800.00
00134             280.00    -6600.00
00135             240.00    -6200.00
00136             280.00    -6000.00
00137             280.00    -5800.00
00138             240.00    -5600.00
00139             200.00    -5400.00
00140             200.00    -5200.00
00141             160.00    -4600.00
00142             200.00    -4600.00
00143             200.00    -4200.00
00144             160.00    -4000.00
00145             200.00    -3800.00
00146             160.00    -3600.00
00147             160.00    -3400.00
00148             120.00    -3000.00
00149             160.00    -2600.00
00150             160.00    -2600.00
00151             160.00    -2200.00
00152             120.00    -1800.00
00153             120.00    -1800.00
00154             120.00    -1200.00
00155             120.00    -1000.00
00156             120.00     -800.00
00157             120.00     -600.00
00158              80.00     -400.00
00159             120.00     -200.00
00160              40.00      400.00
00161             120.00      600.00
00162             200.00      600.00
00163             280.00     1000.00
00164             200.00     1200.00
00165             160.00     1400.00
00166             120.00     1800.00
00167             200.00     1800.00
00168             640.00     2600.00
00169            1400.00     2800.00
00170             800.00     3000.00
00171            -640.00     3000.00
00172           -1320.00     3400.00
00173           -1080.00     3600.00
00174           -1000.00     3800.00
00175             120.00     4000.00
00176             760.00     4400.00
00177             120.00     4600.00
00178             280.00     4800.00
00179            -120.00     5000.00
00180             -40.00     6000.00
00181               0.00     5200.00
00182               0.00     5800.00
00183             160.00     6200.00
00184            -200.00     6000.00
00185             -40.00     7000.00
00186            -320.00     6600.00
00187            -160.00     7200.00
00188             -40.00     7400.00
00189            -160.00     7600.00
00190            -120.00     7800.00
00191            -160.00     7800.00
00192            -120.00     8400.00
00193            -320.00     8200.00
00194            -120.00     8800.00
00195            -200.00     9000.00
00196            -240.00     9000.00
00197            -280.00     9400.00
00198            -280.00     9400.00
00199            -280.00     9800.00
00200            -280.00     9800.00
00201            -200.00    10200.00
00202            -320.00    10200.00
00203            -320.00    10600.00
00204            -360.00    10800.00
00205            -320.00    11000.00
00206            -360.00    11000.00
00207            -320.00    11200.00
00208            -440.00    11400.00
00209            -480.00    11600.00
00210            -360.00    12000.00
00211            -440.00    11800.00
00212            -440.00    12200.00
00213            -440.00    12200.00
00214            -520.00    12400.00
00215            -520.00    12400.00
00216            -480.00    12600.00
00217            -520.00    12600.00
00218            -520.00    12800.00
00219            -600.00    13000.00
00220            -600.00    13200.00
00221            -640.00    13200.00
00222            -640.00    13400.00
00223            -640.00    13400.00
00224            -680.00    13400.00
00225            -720.00    13600.00
00226            -760.00    13800.00
00227            -800.00    13800.00
00228            -840.00    14000.00
00229            -840.00    14000.00
00230            -840.00    14000.00
00231            -920.00    14200.00
00232            -960.00    14200.00
00233           -1000.00    14400.00
00234           -1080.00    14200.00
00235           -1160.00    14200.00
00236           -1160.00    14400.00
00237           -1200.00    14400.00
00238           -1280.00    14400.00
00239           -1360.00    14400.00
00240           -1480.00    14400.00
00241           -1560.00    14400.00
00242           -1600.00    14600.00
00243           -1720.00    14600.00
00244           -1800.00    14400.00
00245           -1920.00    14200.00
00246           -2040.00    14400.00
00247           -2120.00    14200.00
00248           -2240.00    14200.00
00249           -2400.00    14400.00
00250           -2440.00    14200.00
00251           -2560.00    14200.00
00252           -2600.00    14200.00
00253           -2600.00    14200.00
00254           -2600.00    14000.00
00255           -2600.00    14000.00
00256           -2600.00    13800.00
00257           -2520.00    13800.00
00258           -2400.00    13800.00
00259           -2360.00    13800.00
00260           -2240.00    13800.00
00261           -2120.00    13600.00
00262           -2040.00    13400.00
00263           -1880.00    13400.00
00264           -1800.00    13400.00
00265           -1640.00    13200.00
00266           -1600.00    13000.00
00267           -1480.00    13000.00
00268           -1320.00    12800.00
00269           -1280.00    12600.00
00270           -1160.00    12600.00
00271           -1080.00    12400.00
00272           -1040.00    12400.00
00273            -960.00    12200.00
00274            -920.00    11800.00
00275            -840.00    12000.00
00276            -840.00    11600.00
00277            -760.00    11400.00
00278            -680.00    11200.00
00279            -680.00    11000.00
00280            -640.00    11000.00
00281            -640.00    10800.00
00282            -600.00    10800.00
00283            -520.00    10400.00
00284            -520.00    10200.00
00285            -520.00     9800.00
00286            -520.00    10000.00
00287            -520.00     9800.00
00288            -480.00     9400.00
00289            -440.00     9200.00
00290            -440.00     9200.00
00291            -440.00     8800.00
00292            -360.00     8600.00
00293            -360.00     8400.00
00294            -360.00     8200.00
00295            -360.00     8000.00
00296            -360.00     7800.00
00297            -320.00     7600.00
00298            -320.00     7400.00
00299            -320.00     7000.00
00300            -320.00     6800.00
00301            -320.00     6600.00
00302            -280.00     6200.00
00303            -280.00     6000.00
00304            -280.00     5800.00
00305            -200.00     5600.00
00306            -280.00     5400.00
00307            -240.00     5000.00
00308            -240.00     4600.00
00309            -200.00     4600.00
00310            -200.00     4400.00
00311            -200.00     4000.00
00312            -200.00     3800.00
00313            -200.00     3600.00
00314            -200.00     3400.00
00315            -160.00     3000.00
00316            -160.00     2800.00
00317            -160.00     2400.00
00318            -160.00     2200.00
00319            -160.00     2000.00
00320            -160.00     1400.00
00321            -160.00     1400.00
00322            -160.00     1200.00
00323            -120.00     1000.00
00324            -120.00      600.00
00325            -120.00      200.00
00326            -120.00        0.00
00327             -40.00     -200.00
00328             -40.00     -400.00
00329             120.00     -600.00
00330             120.00    -1000.00
00331             120.00    -1200.00
00332              40.00    -1600.00
00333              40.00    -1800.00
00334              40.00    -1800.00
00335             200.00    -2200.00
00336             760.00    -2600.00
00337            1160.00    -3000.00
00338             280.00    -3200.00
00339            -800.00    -3400.00
00340            -960.00    -3600.00
00341            -640.00    -3600.00
00342            -760.00    -4000.00
00343            -160.00    -4200.00
00344             600.00    -4800.00
00345             280.00    -4400.00
00346             440.00    -5200.00
00347             160.00    -5600.00
00348             120.00    -5200.00
00349             360.00    -6000.00
00350             160.00    -5800.00
00351             320.00    -6400.00
00352             120.00    -6600.00
00353              40.00    -6800.00
00354              80.00    -7200.00
00355             120.00    -7000.00
00356             120.00    -7800.00
00357             120.00    -7600.00
00358             320.00    -8000.00
00359             200.00    -8400.00
00360             200.00    -8200.00
00361             200.00    -8800.00
00362             280.00    -8600.00
00363             280.00    -9200.00
00364             280.00    -9200.00
00365             200.00    -9400.00
00366             200.00    -9600.00
00367             320.00    -9800.00
00368             280.00   -10200.00
00369             320.00   -10200.00
00370             320.00   -10600.00
00371             320.00   -10600.00
00372             320.00   -10800.00
00373             360.00   -11000.00
00374             360.00   -11000.00
00375             360.00   -11400.00
00376             360.00   -11600.00
00377             400.00   -11600.00
00378             440.00   -11800.00
00379             440.00   -12000.00
00380             480.00   -12200.00
00381             440.00   -12400.00
00382             480.00   -12400.00
00383             480.00   -12600.00
00384             520.00   -12600.00
00385             520.00   -12800.00
00386             520.00   -13000.00
00387             560.00   -13200.00
00388             600.00   -13200.00
00389             640.00   -13200.00
00390             640.00   -13400.00
00391             680.00   -13400.00
00392             760.00   -13600.00
00393             760.00   -13600.00
00394             760.00   -13800.00
00395             800.00   -13800.00
00396             800.00   -14000.00
00397             840.00   -14000.00
00398             920.00   -14000.00
00399             960.00   -14200.00
00400             960.00   -14200.00
00401            1040.00   -14200.00
00402            1120.00   -14200.00
00403            1080.00   -14200.00
00404            1240.00   -14400.00
00405            1280.00   -14400.00
00406            1320.00   -14200.00
00407            1400.00   -14200.00
00408            1480.00   -14400.00
00409            1560.00   -14400.00
00410            1720.00   -14600.00
00411            1800.00   -14400.00
00412            1920.00   -14400.00
00413            2040.00   -14200.00
00414            2120.00   -14400.00
00415            2240.00   -14200.00
00416            2360.00   -14200.00
00417            2400.00   -14200.00
00418            2520.00   -14200.00
00419            2560.00   -14200.00
00420            2600.00   -14200.00
00421            2600.00   -14000.00
00422            2560.00   -14000.00
00423            2560.00   -13800.00
00424            2520.00   -13800.00
00425            2400.00   -13600.00
00426            2360.00   -13800.00
00427            2240.00   -13600.00
00428            2080.00   -13600.00
00429            2000.00   -13400.00
00430            1880.00   -13400.00
00431            1800.00   -13400.00
00432            1640.00   -13000.00
00433            1560.00   -13000.00
00434            1440.00   -13000.00
00435            1320.00   -12600.00
00436            1280.00   -12600.00
00437            1160.00   -12400.00
00438            1080.00   -12400.00
00439            1040.00   -12400.00
00440             960.00   -12000.00
00441             880.00   -12000.00
00442             800.00   -11800.00
00443             760.00   -11800.00
00444             760.00   -11400.00
00445             680.00   -11400.00
00446             680.00   -11000.00
00447             640.00   -11000.00
00448             600.00   -10800.00
00449             520.00   -10600.00
00450             520.00   -10600.00
00451             480.00   -10200.00
00452             480.00   -10200.00
00453             480.00   -10000.00
00454             440.00    -9800.00
00455             440.00    -9400.00
00456             440.00    -9200.00
00457             360.00    -9000.00
00458             400.00    -9000.00
00459             360.00    -8600.00
00460             360.00    -8200.00
00461             320.00    -8400.00
00462             320.00    -8200.00
00463             320.00    -7800.00
00464             320.00    -7600.00
00465             320.00    -7200.00
00466             280.00    -7000.00
00467             280.00    -6800.00
00468             280.00    -6600.00
00469             240.00    -6400.00
00470             280.00    -6200.00
00471             280.00    -5800.00
00472             240.00    -5800.00
00473             200.00    -5400.00
00474             160.00    -5000.00
00475             200.00    -5000.00
00476             200.00    -4600.00
00477             160.00    -4200.00
00478             200.00    -4200.00
00479             160.00    -3800.00
00480             200.00    -3600.00
00481             160.00    -3200.00
00482             160.00    -3000.00
00483             160.00    -2800.00
00484             160.00    -2600.00
00485             120.00    -2400.00
00486             120.00    -1800.00
00487             120.00    -1800.00
00488             120.00    -1600.00
00489             120.00    -1200.00
00490             120.00     -800.00
00491              80.00     -600.00
00492             120.00     -400.00
00493             120.00        0.00
00494              40.00      200.00
00495             120.00      400.00
00496             200.00      600.00
00497             280.00     1000.00
00498             240.00     1200.00
00499             160.00     1200.00
00500             120.00     1800.00
00501             160.00     1800.00
00502             400.00     2200.00
00503            1240.00     2600.00
00504            1160.00     3000.00
00505            -200.00     3000.00
00506           -1280.00     3200.00
00507           -1080.00     3400.00
00508           -1080.00     3800.00
00509            -400.00     4000.00
00510             800.00     4200.00
00511             280.00     4400.00
00512             200.00     5000.00
00513               0.00     4600.00
00514            -200.00     5800.00
00515              40.00     5400.00
00516            -160.00     5600.00
00517             160.00     6600.00
00518            -160.00     5800.00
00519            -160.00     6800.00
00520            -200.00     6800.00
00521            -320.00     7000.00
00522             -40.00     7400.00
00523            -160.00     7400.00
00524            -120.00     7800.00
