Unit:(mV)
                     CH1         CH2
Frequency              ? 261.573 kHz
00001              -8.00    -6600.00
00002              -6.00    -6200.00
00003              -6.00    -6200.00
00004              -2.00    -6000.00
00005              -6.00    -6000.00
00006              -2.00    -5800.00
00007              -8.00    -5400.00
00008              -2.00    -5200.00
00009              -2.00    -5200.00
00010              -2.00    -5000.00
00011              -4.00    -4600.00
00012              -2.00    -4600.00
00013              -2.00    -4600.00
00014              -6.00    -4400.00
00015              -6.00    -4000.00
00016              -8.00    -3800.00
00017              -2.00    -3800.00
00018              -2.00    -3600.00
00019              -2.00    -3400.00
00020              -2.00    -3000.00
00021              -2.00    -3000.00
00022              -4.00    -2800.00
00023              -2.00    -2800.00
00024              -2.00    -2600.00
00025              -2.00    -2200.00
00026              -2.00    -2000.00
00027              -2.00    -1800.00
00028              -4.00    -1800.00
00029              -2.00    -1400.00
00030              -2.00    -1400.00
00031              -2.00    -1400.00
00032              -2.00    -1000.00
00033              -2.00     -800.00
00034              -2.00     -600.00
00035              -2.00     -400.00
00036              -2.00     -200.00
00037              -2.00        0.00
00038               0.00      200.00
00039               0.00      400.00
00040              10.00      600.00
00041              22.00      600.00
00042               2.00     1000.00
00043              -6.00     1000.00
00044               0.00     1400.00
00045              10.00     1400.00
00046               6.00     1600.00
00047              38.00     1800.00
00048             178.00     2400.00
00049             114.00     2400.00
00050            -254.00     2400.00
00051            -238.00     2600.00
00052              56.00     2800.00
00053             -22.00     2800.00
00054              70.00     3400.00
00055             228.00     3600.00
00056            -254.00     3200.00
00057              48.00     3800.00
00058             216.00     3800.00
00059            -186.00     3600.00
00060              62.00     4600.00
00061             -60.00     4200.00
00062              16.00     4200.00
00063             174.00     5200.00
00064            -236.00     4400.00
00065              56.00     5200.00
00066              86.00     5600.00
00067            -102.00     5000.00
00068              54.00     5800.00
00069             -32.00     6000.00
00070              30.00     5800.00
00071              10.00     6400.00
00072             -26.00     6200.00
00073             -12.00     6200.00
00074               6.00     6800.00
00075              12.00     6600.00
00076             -26.00     6800.00
00077              48.00     7400.00
00078             -54.00     7000.00
00079               6.00     7400.00
00080              38.00     7800.00
00081             -38.00     7600.00
00082              24.00     7800.00
00083             -14.00     8200.00
00084              -2.00     8200.00
00085              14.00     8600.00
00086             -10.00     8600.00
00087             -16.00     8400.00
00088              26.00     9000.00
00089             -10.00     8800.00
00090              -4.00     9000.00
00091              16.00     9200.00
00092             -18.00     9200.00
00093               2.00     9400.00
00094               0.00     9400.00
00095              -2.00     9400.00
00096               2.00     9800.00
00097               6.00     9800.00
00098             -14.00     9800.00
00099               2.00    10000.00
00100              -2.00    10200.00
00101               0.00    10200.00
00102              16.00    10200.00
00103              -6.00    10200.00
00104              -6.00    10600.00
00105               2.00    10600.00
00106              -6.00    10800.00
00107              -2.00    10800.00
00108               8.00    10800.00
00109               0.00    11000.00
00110               2.00    11000.00
00111              -2.00    11000.00
00112              -8.00    11000.00
00113               0.00    11200.00
00114              -2.00    11400.00
00115              -2.00    11400.00
00116               4.00    11400.00
00117              -2.00    11400.00
00118              -6.00    11400.00
00119               0.00    11600.00
00120              -4.00    11600.00
00121              -2.00    11600.00
00122               2.00    11600.00
00123               0.00    11600.00
00124               0.00    11600.00
00125              -2.00    11800.00
00126              -6.00    11800.00
00127               0.00    11600.00
00128               0.00    11800.00
00129              -2.00    11800.00
00130               0.00    11800.00
00131              -2.00    11800.00
00132              -6.00    11800.00
00133              -2.00    11800.00
00134               0.00    11800.00
00135               0.00    11800.00
00136               0.00    11800.00
00137              -2.00    11800.00
00138              -2.00    11800.00
00139               0.00    11600.00
00140              -2.00    11800.00
00141               0.00    11800.00
00142               2.00    11600.00
00143               0.00    11800.00
00144               2.00    11800.00
00145              -4.00    11600.00
00146              -6.00    11600.00
00147               0.00    11600.00
00148              -2.00    11400.00
00149               0.00    11400.00
00150               2.00    11600.00
00151              -2.00    11400.00
00152              -2.00    11400.00
00153               2.00    11400.00
00154               0.00    11000.00
00155              -2.00    11400.00
00156               0.00    11000.00
00157               2.00    11000.00
00158               0.00    11000.00
00159               0.00    10800.00
00160              -2.00    10800.00
00161               0.00    10800.00
00162               2.00    10600.00
00163               0.00    10400.00
00164              -2.00    10400.00
00165               0.00    10200.00
00166               0.00    10200.00
00167              -2.00    10000.00
00168               0.00    10000.00
00169              -2.00     9800.00
00170               0.00     9800.00
00171              -2.00     9800.00
00172              -2.00     9600.00
00173               0.00     9400.00
00174               0.00     9400.00
00175               0.00     9200.00
00176               0.00     9000.00
00177               0.00     9000.00
00178              -2.00     8800.00
00179              -2.00     8800.00
00180              -2.00     8400.00
00181              -2.00     8400.00
00182               0.00     8200.00
00183              -2.00     8000.00
00184               0.00     7800.00
00185              -2.00     7800.00
00186              -6.00     7600.00
00187              -2.00     7600.00
00188              -2.00     7400.00
00189              -2.00     7400.00
00190               0.00     7000.00
00191              -2.00     7000.00
00192              -2.00     6800.00
00193              -6.00     6600.00
00194              -2.00     6600.00
00195              -2.00     6400.00
00196              -2.00     6200.00
00197              -2.00     6000.00
00198              -2.00     5800.00
00199              -6.00     5800.00
00200              -2.00     5400.00
00201               0.00     5200.00
00202               0.00     5000.00
00203               0.00     5000.00
00204              -6.00     4600.00
00205              -6.00     4600.00
00206              -6.00     4400.00
00207              -6.00     4200.00
00208               0.00     4000.00
00209               0.00     3800.00
00210              -4.00     3800.00
00211               0.00     3400.00
00212             -10.00     3400.00
00213              -4.00     3000.00
00214              -6.00     2800.00
00215              -2.00     2800.00
00216              -2.00     2600.00
00217               0.00     2400.00
00218              -8.00     2200.00
00219              -6.00     2200.00
00220              -2.00     1800.00
00221              -2.00     1600.00
00222               2.00     1400.00
00223              -2.00     1400.00
00224              -4.00     1000.00
00225              -6.00     1000.00
00226              -6.00      800.00
00227              -2.00      600.00
00228               2.00      400.00
00229               0.00      200.00
00230               2.00        0.00
00231               6.00     -200.00
00232              18.00     -400.00
00233               4.00     -400.00
00234              -6.00     -800.00
00235               0.00    -1000.00
00236               8.00    -1200.00
00237               2.00    -1200.00
00238               4.00    -1400.00
00239              54.00    -1400.00
00240             168.00    -1800.00
00241              40.00    -2200.00
00242            -246.00    -2600.00
00243            -162.00    -2600.00
00244              96.00    -2600.00
00245              -2.00    -2800.00
00246            -144.00    -2800.00
00247             196.00    -3000.00
00248              70.00    -3400.00
00249            -162.00    -3200.00
00250              96.00    -3800.00
00251              -6.00    -4000.00
00252               0.00    -3800.00
00253             -16.00    -4200.00
00254             -48.00    -4400.00
00255             106.00    -4400.00
00256             -80.00    -4800.00
00257             -30.00    -5200.00
00258              46.00    -4800.00
00259             -46.00    -5400.00
00260              26.00    -5400.00
00261             -14.00    -5400.00
00262               6.00    -6000.00
00263               0.00    -5800.00
00264             -14.00    -6000.00
00265              -8.00    -6600.00
00266              -6.00    -6400.00
00267               8.00    -6600.00
00268             -24.00    -6800.00
00269              18.00    -6800.00
00270              -8.00    -7000.00
00271             -26.00    -7400.00
00272              16.00    -7400.00
00273             -14.00    -7600.00
00274               6.00    -7800.00
00275               2.00    -7800.00
00276             -16.00    -8200.00
00277               2.00    -8400.00
00278              -6.00    -8200.00
00279             -14.00    -8400.00
00280               4.00    -8400.00
00281               0.00    -8600.00
00282             -14.00    -8800.00
00283               6.00    -9000.00
00284              -6.00    -9000.00
00285             -10.00    -9200.00
00286               2.00    -9200.00
00287              -2.00    -9400.00
00288              -2.00    -9200.00
00289              -2.00    -9400.00
00290              -8.00    -9800.00
00291              -6.00    -9800.00
00292              -2.00    -9800.00
00293              -8.00    -9800.00
00294               2.00   -10000.00
00295              -2.00   -10200.00
00296              -8.00   -10200.00
00297               0.00   -10200.00
00298              -6.00   -10400.00
00299              -8.00   -10600.00
00300              -2.00   -10400.00
00301              -2.00   -10600.00
00302              -6.00   -10800.00
00303              -4.00   -10800.00
00304              -8.00   -11000.00
00305              -6.00   -11000.00
00306              -2.00   -11000.00
00307              -8.00   -11000.00
00308              -2.00   -11200.00
00309              -2.00   -11200.00
00310             -10.00   -11400.00
00311              -8.00   -11400.00
00312              -8.00   -11400.00
00313              -6.00   -11400.00
00314              -6.00   -11400.00
00315              -6.00   -11400.00
00316              -6.00   -11600.00
00317              -6.00   -11400.00
00318              -8.00   -11400.00
00319              -6.00   -11400.00
00320              -2.00   -11600.00
00321              -6.00   -11600.00
00322              -6.00   -11600.00
00323              -6.00   -11400.00
00324             -10.00   -11600.00
00325              -6.00   -11600.00
00326              -6.00   -11400.00
00327              -2.00   -11600.00
00328              -6.00   -11600.00
00329              -6.00   -11400.00
00330              -6.00   -11600.00
00331              -8.00   -11600.00
00332              -8.00   -11400.00
00333              -4.00   -11400.00
00334              -2.00   -11400.00
00335              -2.00   -11400.00
00336              -6.00   -11400.00
00337              -8.00   -11400.00
00338              -8.00   -11400.00
00339              -2.00   -11000.00
00340              -4.00   -11000.00
00341              -2.00   -11000.00
00342              -6.00   -11000.00
00343              -4.00   -11000.00
00344              -8.00   -11000.00
00345              -8.00   -11000.00
00346              -4.00   -10800.00
00347              -2.00   -10800.00
00348              -2.00   -10600.00
00349              -6.00   -10400.00
00350              -8.00   -10400.00
00351              -6.00   -10400.00
00352              -6.00   -10200.00
00353              -6.00   -10200.00
00354               0.00   -10200.00
00355              -4.00   -10200.00
00356              -4.00   -10000.00
00357              -6.00    -9800.00
00358              -6.00    -9800.00
00359              -6.00    -9800.00
00360              -2.00    -9600.00
00361              -2.00    -9400.00
00362              -2.00    -9200.00
00363              -6.00    -9200.00
00364              -4.00    -9200.00
00365              -2.00    -9000.00
00366              -6.00    -9000.00
00367              -4.00    -8800.00
00368              -2.00    -8600.00
00369              -6.00    -8600.00
00370              -6.00    -8400.00
00371              -8.00    -8200.00
00372              -6.00    -8200.00
00373              -6.00    -8000.00
00374              -2.00    -7800.00
00375              -2.00    -7800.00
00376              -6.00    -7600.00
00377              -8.00    -7600.00
00378              -6.00    -7400.00
00379              -6.00    -7000.00
00380              -2.00    -7000.00
00381              -6.00    -6800.00
00382              -4.00    -6800.00
00383              -6.00    -6600.00
00384              -8.00    -6600.00
00385              -6.00    -6200.00
00386              -2.00    -6000.00
00387              -6.00    -6000.00
00388              -2.00    -5800.00
00389              -6.00    -5600.00
00390              -6.00    -5400.00
00391              -6.00    -5200.00
00392              -6.00    -5200.00
00393              -2.00    -5000.00
00394              -4.00    -4600.00
00395              -2.00    -4400.00
00396              -6.00    -4400.00
00397              -6.00    -4200.00
00398              -6.00    -4000.00
00399              -2.00    -3800.00
00400              -2.00    -3600.00
00401              -2.00    -3400.00
00402              -4.00    -3200.00
00403              -2.00    -3000.00
00404              -6.00    -2800.00
00405              -4.00    -2800.00
00406              -6.00    -2600.00
00407              -2.00    -2200.00
00408              -4.00    -2200.00
00409              -6.00    -2000.00
00410              -4.00    -1800.00
00411              -4.00    -1600.00
00412              -2.00    -1400.00
00413              -2.00    -1400.00
00414              -2.00    -1200.00
00415              -2.00    -1000.00
00416              -2.00     -600.00
00417              -2.00     -400.00
00418              -2.00     -400.00
00419              -2.00     -200.00
00420               0.00      200.00
00421               0.00      400.00
00422               2.00      400.00
00423              22.00      600.00
00424               8.00      600.00
00425              -6.00     1200.00
00426              -2.00     1200.00
00427               8.00     1400.00
00428               6.00     1400.00
00429              18.00     1800.00
00430             128.00     2000.00
00431             194.00     2400.00
00432            -168.00     2400.00
00433            -254.00     2600.00
00434             -22.00     2800.00
00435              50.00     2800.00
00436             -32.00     3000.00
00437             246.00     3400.00
00438            -160.00     3200.00
00439            -144.00     3600.00
00440             246.00     4000.00
00441            -118.00     3600.00
00442             -32.00     4400.00
00443              32.00     4400.00
00444             -90.00     4200.00
00445             216.00     5200.00
00446            -146.00     4600.00
00447             -82.00     4600.00
00448             162.00     5600.00
00449            -104.00     5000.00
00450              26.00     5400.00
00451               0.00     6000.00
00452              -6.00     5400.00
00453              38.00     6200.00
00454             -34.00     6400.00
00455              -8.00     6200.00
00456             -10.00     6800.00
00457              28.00     6800.00
00458             -32.00     6600.00
00459              38.00     7200.00
00460             -22.00     7200.00
00461             -38.00     7400.00
00462              56.00     7800.00
00463             -34.00     7400.00
00464              14.00     7600.00
00465               2.00     8200.00
00466             -16.00     8200.00
00467              14.00     8400.00
00468              -2.00     8600.00
00469             -22.00     8400.00
00470              18.00     8800.00
00471               6.00     9000.00
00472             -16.00     9000.00
00473              20.00     9200.00
00474             -14.00     9200.00
00475              -6.00     9400.00
00476               6.00     9400.00
00477              -2.00     9600.00
00478               0.00     9800.00
00479              10.00     9800.00
00480              -6.00     9800.00
00481              -2.00    10000.00
00482               0.00    10200.00
00483              -8.00    10000.00
00484              16.00    10200.00
00485               0.00    10400.00
00486             -10.00    10600.00
00487               2.00    10600.00
00488              -2.00    10800.00
00489              -6.00    10600.00
00490               6.00    10600.00
00491              -2.00    10800.00
00492               4.00    11000.00
00493               2.00    11000.00
00494              -4.00    11200.00
00495              -2.00    11000.00
00496               0.00    11200.00
00497               0.00    11200.00
00498               4.00    11400.00
00499               2.00    11400.00
00500              -2.00    11400.00
00501               0.00    11600.00
00502               0.00    11600.00
00503              -2.00    11600.00
00504               2.00    11600.00
00505               0.00    11600.00
00506               2.00    11600.00
00507               0.00    11800.00
00508              -2.00    11800.00
00509              -2.00    11600.00
00510               0.00    11800.00
00511               0.00    11800.00
00512               2.00    11800.00
00513               0.00    11800.00
00514              -2.00    11800.00
00515               0.00    11800.00
00516              -2.00    11800.00
00517               0.00    11800.00
00518               0.00    11800.00
00519              -2.00    11600.00
00520               0.00    11800.00
00521              -2.00    11800.00
00522              -2.00    11800.00
00523               0.00    11600.00
00524               0.00    11800.00
