Unit:(mV)
                     CH1         CH2
Frequency              ? 299.126 kHz
00001             120.00    -2000.00
00002             520.00    -2200.00
00003            1240.00    -2800.00
00004             640.00    -3000.00
00005            -600.00    -3400.00
00006           -1160.00    -3600.00
00007            -960.00    -3800.00
00008            -920.00    -3800.00
00009            -480.00    -4000.00
00010             480.00    -4600.00
00011             320.00    -4400.00
00012             480.00    -4600.00
00013             200.00    -5400.00
00014            -120.00    -5000.00
00015             280.00    -5800.00
00016              40.00    -5800.00
00017              40.00    -6400.00
00018              80.00    -6600.00
00019             -40.00    -6200.00
00020            -200.00    -7200.00
00021             -40.00    -6800.00
00022             160.00    -7400.00
00023             -40.00    -7600.00
00024              40.00    -7600.00
00025             160.00    -8200.00
00026              40.00    -8000.00
00027               0.00    -8600.00
00028             120.00    -8600.00
00029             160.00    -8800.00
00030              40.00    -9200.00
00031              40.00    -9200.00
00032               0.00    -9400.00
00033             120.00    -9400.00
00034              40.00   -10000.00
00035             120.00   -10000.00
00036             120.00   -10200.00
00037             120.00   -10600.00
00038             160.00   -10600.00
00039             160.00   -10800.00
00040             120.00   -11000.00
00041             120.00   -11000.00
00042             160.00   -11400.00
00043             160.00   -11400.00
00044             160.00   -11600.00
00045             200.00   -11800.00
00046             200.00   -11800.00
00047             200.00   -12200.00
00048             200.00   -12200.00
00049             280.00   -12200.00
00050             200.00   -12400.00
00051             280.00   -12400.00
00052             280.00   -12600.00
00053             280.00   -12800.00
00054             280.00   -13000.00
00055             320.00   -13000.00
00056             360.00   -13200.00
00057             360.00   -13200.00
00058             440.00   -13400.00
00059             440.00   -13200.00
00060             440.00   -13400.00
00061             440.00   -13400.00
00062             480.00   -13600.00
00063             520.00   -13800.00
00064             520.00   -13800.00
00065             600.00   -13600.00
00066             640.00   -14000.00
00067             640.00   -14000.00
00068             640.00   -14000.00
00069             760.00   -14000.00
00070             800.00   -14200.00
00071             840.00   -14000.00
00072             960.00   -14200.00
00073             960.00   -14000.00
00074            1000.00   -14200.00
00075            1080.00   -14200.00
00076            1240.00   -14200.00
00077            1280.00   -14200.00
00078            1440.00   -14200.00
00079            1560.00   -14200.00
00080            1600.00   -14200.00
00081            1760.00   -14200.00
00082            1840.00   -14000.00
00083            1920.00   -14000.00
00084            2040.00   -14000.00
00085            2120.00   -14000.00
00086            2200.00   -13800.00
00087            2200.00   -13600.00
00088            2200.00   -13800.00
00089            2200.00   -13600.00
00090            2200.00   -13600.00
00091            2120.00   -13600.00
00092            2080.00   -13400.00
00093            1920.00   -13400.00
00094            1760.00   -13200.00
00095            1680.00   -13200.00
00096            1560.00   -13200.00
00097            1400.00   -13000.00
00098            1320.00   -13000.00
00099            1240.00   -13000.00
00100            1080.00   -12600.00
00101             960.00   -12600.00
00102             840.00   -12600.00
00103             800.00   -12400.00
00104             760.00   -12200.00
00105             640.00   -12200.00
00106             640.00   -12200.00
00107             520.00   -11800.00
00108             480.00   -11600.00
00109             440.00   -11400.00
00110             440.00   -11400.00
00111             440.00   -11400.00
00112             360.00   -11000.00
00113             360.00   -11000.00
00114             320.00   -10600.00
00115             280.00   -10600.00
00116             280.00   -10400.00
00117             280.00   -10000.00
00118             280.00   -10000.00
00119             200.00    -9800.00
00120             280.00    -9400.00
00121             200.00    -9400.00
00122             200.00    -9200.00
00123             200.00    -9000.00
00124             160.00    -8800.00
00125             200.00    -8600.00
00126             160.00    -8400.00
00127             160.00    -8200.00
00128             160.00    -8000.00
00129             160.00    -7800.00
00130             160.00    -7600.00
00131             120.00    -7400.00
00132             120.00    -7000.00
00133             120.00    -6800.00
00134             120.00    -6600.00
00135             120.00    -6200.00
00136             120.00    -6000.00
00137             120.00    -5800.00
00138             120.00    -5600.00
00139             120.00    -5400.00
00140             120.00    -5000.00
00141              40.00    -5000.00
00142              80.00    -4600.00
00143             120.00    -4400.00
00144             120.00    -4200.00
00145             120.00    -3800.00
00146              80.00    -3600.00
00147             120.00    -3400.00
00148              40.00    -3000.00
00149              40.00    -2800.00
00150              40.00    -2600.00
00151             120.00    -2200.00
00152              40.00    -2000.00
00153              40.00    -2000.00
00154              40.00    -1400.00
00155              40.00    -1400.00
00156              40.00     -800.00
00157              40.00     -600.00
00158              80.00     -400.00
00159             120.00     -200.00
00160              40.00      200.00
00161              40.00      400.00
00162             160.00      600.00
00163             280.00      800.00
00164             280.00     1000.00
00165             240.00     1200.00
00166             160.00     1400.00
00167             120.00     1800.00
00168             280.00     2200.00
00169            1040.00     2600.00
00170            1480.00     2800.00
00171             360.00     3000.00
00172           -1080.00     3200.00
00173           -1400.00     3200.00
00174           -1240.00     3600.00
00175            -680.00     4200.00
00176             760.00     4000.00
00177             600.00     4200.00
00178             480.00     4800.00
00179             280.00     4600.00
00180            -200.00     5200.00
00181             280.00     6000.00
00182             -40.00     5200.00
00183             120.00     6200.00
00184             200.00     6000.00
00185             -40.00     6600.00
00186            -120.00     6600.00
00187            -160.00     6600.00
00188             160.00     7400.00
00189            -120.00     7000.00
00190              40.00     7800.00
00191              40.00     7800.00
00192             -40.00     8000.00
00193             -40.00     8400.00
00194               0.00     8200.00
00195               0.00     9000.00
00196            -120.00     8600.00
00197               0.00     9200.00
00198            -120.00     9200.00
00199             -40.00     9600.00
00200            -160.00     9600.00
00201             -40.00     9800.00
00202             -40.00    10200.00
00203            -120.00    10200.00
00204            -120.00    10600.00
00205            -160.00    10600.00
00206            -120.00    10800.00
00207            -160.00    11000.00
00208            -120.00    11200.00
00209            -200.00    11200.00
00210            -200.00    11400.00
00211            -200.00    11800.00
00212            -160.00    11800.00
00213            -200.00    12000.00
00214            -200.00    12200.00
00215            -200.00    12200.00
00216            -320.00    12200.00
00217            -200.00    12400.00
00218            -200.00    12400.00
00219            -280.00    13000.00
00220            -320.00    12600.00
00221            -320.00    13000.00
00222            -360.00    13000.00
00223            -320.00    13000.00
00224            -320.00    13400.00
00225            -320.00    13400.00
00226            -440.00    13400.00
00227            -440.00    13600.00
00228            -480.00    13800.00
00229            -520.00    13800.00
00230            -520.00    13800.00
00231            -520.00    13800.00
00232            -520.00    13800.00
00233            -640.00    14000.00
00234            -680.00    14000.00
00235            -760.00    14000.00
00236            -760.00    14000.00
00237            -800.00    14200.00
00238            -840.00    14200.00
00239            -960.00    14200.00
00240           -1000.00    14000.00
00241           -1080.00    14200.00
00242           -1120.00    14200.00
00243           -1240.00    14200.00
00244           -1280.00    14200.00
00245           -1400.00    14200.00
00246           -1520.00    14200.00
00247           -1600.00    14200.00
00248           -1760.00    14200.00
00249           -1880.00    14200.00
00250           -1920.00    14200.00
00251           -2040.00    14000.00
00252           -2120.00    14000.00
00253           -2160.00    14000.00
00254           -2200.00    14000.00
00255           -2240.00    13800.00
00256           -2240.00    13800.00
00257           -2200.00    13800.00
00258           -2120.00    13800.00
00259           -2080.00    13800.00
00260           -1960.00    13600.00
00261           -1840.00    13400.00
00262           -1760.00    13400.00
00263           -1600.00    13200.00
00264           -1480.00    13200.00
00265           -1320.00    13000.00
00266           -1240.00    13000.00
00267           -1120.00    12600.00
00268           -1040.00    12800.00
00269            -960.00    12600.00
00270            -840.00    12400.00
00271            -760.00    12400.00
00272            -680.00    12200.00
00273            -640.00    12200.00
00274            -600.00    11800.00
00275            -560.00    11800.00
00276            -520.00    11600.00
00277            -480.00    11400.00
00278            -440.00    11200.00
00279            -360.00    11000.00
00280            -360.00    11000.00
00281            -360.00    10800.00
00282            -320.00    10600.00
00283            -320.00    10400.00
00284            -320.00    10200.00
00285            -320.00    10000.00
00286            -280.00     9800.00
00287            -280.00     9600.00
00288            -240.00     9400.00
00289            -240.00     9200.00
00290            -200.00     9200.00
00291            -200.00     8800.00
00292            -200.00     8600.00
00293            -200.00     8400.00
00294            -200.00     8200.00
00295            -200.00     8000.00
00296            -200.00     7800.00
00297            -160.00     7600.00
00298            -160.00     7400.00
00299            -160.00     7000.00
00300            -160.00     6800.00
00301            -160.00     6600.00
00302            -160.00     6400.00
00303            -160.00     6200.00
00304            -160.00     5800.00
00305            -120.00     5600.00
00306            -160.00     5400.00
00307            -160.00     5200.00
00308            -120.00     5000.00
00309            -120.00     4600.00
00310            -120.00     4600.00
00311            -120.00     4200.00
00312            -120.00     4000.00
00313            -160.00     3600.00
00314            -120.00     3400.00
00315            -120.00     3000.00
00316            -120.00     3000.00
00317            -120.00     2600.00
00318            -120.00     2400.00
00319             -80.00     2200.00
00320             -40.00     1800.00
00321             -80.00     1400.00
00322             -80.00     1400.00
00323            -120.00     1000.00
00324             -40.00      600.00
00325             -40.00      600.00
00326            -120.00      200.00
00327             -40.00     -200.00
00328             -80.00     -200.00
00329               0.00     -400.00
00330             120.00     -600.00
00331             160.00    -1000.00
00332             120.00    -1200.00
00333               0.00    -1400.00
00334               0.00    -1800.00
00335               0.00    -2000.00
00336             320.00    -2200.00
00337            1080.00    -2600.00
00338             960.00    -3200.00
00339            -200.00    -3000.00
00340           -1120.00    -3600.00
00341           -1080.00    -3600.00
00342            -920.00    -3800.00
00343            -680.00    -3800.00
00344             360.00    -4600.00
00345             440.00    -4800.00
00346             400.00    -4600.00
00347             360.00    -5400.00
00348            -160.00    -5200.00
00349             200.00    -5400.00
00350             160.00    -5800.00
00351               0.00    -6000.00
00352             120.00    -6600.00
00353               0.00    -6200.00
00354            -120.00    -7000.00
00355            -160.00    -7000.00
00356             120.00    -7000.00
00357             -40.00    -7600.00
00358             -40.00    -7400.00
00359             160.00    -8200.00
00360              40.00    -7800.00
00361               0.00    -8600.00
00362              40.00    -8600.00
00363             160.00    -8600.00
00364               0.00    -9200.00
00365              40.00    -9200.00
00366              40.00    -9400.00
00367             120.00    -9400.00
00368              40.00    -9800.00
00369             120.00   -10000.00
00370             120.00   -10200.00
00371              40.00   -10400.00
00372             120.00   -10600.00
00373             160.00   -10800.00
00374             160.00   -11000.00
00375             120.00   -11200.00
00376             120.00   -11200.00
00377             160.00   -11400.00
00378             160.00   -11600.00
00379             160.00   -11600.00
00380             200.00   -11800.00
00381             200.00   -11800.00
00382             200.00   -12200.00
00383             200.00   -12200.00
00384             200.00   -12400.00
00385             280.00   -12600.00
00386             320.00   -12600.00
00387             280.00   -12600.00
00388             280.00   -13000.00
00389             280.00   -13000.00
00390             320.00   -13000.00
00391             320.00   -13200.00
00392             400.00   -13400.00
00393             440.00   -13400.00
00394             400.00   -13400.00
00395             440.00   -13600.00
00396             440.00   -13800.00
00397             480.00   -13600.00
00398             520.00   -13600.00
00399             600.00   -14000.00
00400             640.00   -13800.00
00401             600.00   -13800.00
00402             640.00   -14000.00
00403             720.00   -14000.00
00404             760.00   -14000.00
00405             840.00   -14200.00
00406             920.00   -14000.00
00407             960.00   -14200.00
00408            1000.00   -14200.00
00409            1080.00   -14200.00
00410            1240.00   -14200.00
00411            1280.00   -14000.00
00412            1400.00   -14200.00
00413            1560.00   -14200.00
00414            1600.00   -14200.00
00415            1720.00   -14000.00
00416            1800.00   -14000.00
00417            1920.00   -14200.00
00418            2000.00   -14000.00
00419            2080.00   -14000.00
00420            2200.00   -13600.00
00421            2200.00   -14000.00
00422            2240.00   -13800.00
00423            2200.00   -13600.00
00424            2200.00   -13800.00
00425            2120.00   -13600.00
00426            2080.00   -13400.00
00427            1960.00   -13400.00
00428            1800.00   -13400.00
00429            1720.00   -13400.00
00430            1600.00   -13200.00
00431            1480.00   -13000.00
00432            1400.00   -13000.00
00433            1280.00   -13000.00
00434            1120.00   -12600.00
00435             960.00   -12600.00
00436             840.00   -12600.00
00437             800.00   -12400.00
00438             760.00   -12200.00
00439             680.00   -12200.00
00440             640.00   -12000.00
00441             600.00   -11800.00
00442             480.00   -11800.00
00443             480.00   -11600.00
00444             480.00   -11400.00
00445             440.00   -11400.00
00446             360.00   -11000.00
00447             320.00   -10800.00
00448             320.00   -10800.00
00449             320.00   -10600.00
00450             320.00   -10200.00
00451             280.00   -10200.00
00452             280.00   -10000.00
00453             200.00    -9800.00
00454             200.00    -9800.00
00455             240.00    -9400.00
00456             200.00    -9200.00
00457             160.00    -9000.00
00458             160.00    -9000.00
00459             160.00    -8600.00
00460             160.00    -8600.00
00461             160.00    -8200.00
00462             120.00    -8200.00
00463             120.00    -7800.00
00464             120.00    -7600.00
00465             160.00    -7400.00
00466             160.00    -7000.00
00467             120.00    -6800.00
00468             120.00    -6600.00
00469             120.00    -6600.00
00470             120.00    -6200.00
00471             120.00    -5800.00
00472             120.00    -5600.00
00473             120.00    -5400.00
00474             120.00    -5200.00
00475             120.00    -5000.00
00476             120.00    -4600.00
00477             120.00    -4400.00
00478             120.00    -4200.00
00479             120.00    -4000.00
00480              80.00    -3800.00
00481              40.00    -3400.00
00482               0.00    -3200.00
00483              40.00    -3000.00
00484              40.00    -2600.00
00485             120.00    -2600.00
00486             120.00    -2200.00
00487              40.00    -2000.00
00488              40.00    -1600.00
00489              40.00    -1400.00
00490               0.00    -1000.00
00491              40.00     -800.00
00492              80.00     -600.00
00493              80.00     -200.00
00494              80.00        0.00
00495              40.00      200.00
00496             120.00      600.00
00497             280.00      600.00
00498             280.00     1000.00
00499             280.00     1200.00
00500             160.00     1400.00
00501             120.00     1800.00
00502             200.00     2000.00
00503             760.00     2400.00
00504            1520.00     2800.00
00505             840.00     2800.00
00506            -680.00     3000.00
00507           -1400.00     3400.00
00508           -1240.00     3600.00
00509           -1000.00     4000.00
00510             440.00     4200.00
00511             760.00     4000.00
00512             440.00     4800.00
00513             440.00     4600.00
00514            -200.00     4800.00
00515             120.00     6000.00
00516              40.00     5200.00
00517               0.00     6000.00
00518             280.00     6000.00
00519             -40.00     6200.00
00520            -120.00     6800.00
00521            -200.00     6600.00
00522             120.00     7400.00
00523               0.00     7000.00
00524             -40.00     7400.00
