Unit:(mV)
                     CH1         CH2
Frequency              ? 299.073 kHz
00001             640.00    -2200.00
00002            1240.00    -2600.00
00003             640.00    -3000.00
00004            -600.00    -3200.00
00005           -1120.00    -3600.00
00006           -1000.00    -3600.00
00007            -920.00    -3600.00
00008            -160.00    -3800.00
00009             600.00    -4600.00
00010             320.00    -4400.00
00011             480.00    -5000.00
00012             120.00    -5400.00
00013               0.00    -5000.00
00014             280.00    -5800.00
00015              40.00    -5800.00
00016             160.00    -6400.00
00017             120.00    -6200.00
00018             -40.00    -6600.00
00019            -160.00    -7000.00
00020              40.00    -6800.00
00021             120.00    -7400.00
00022             -40.00    -7200.00
00023             120.00    -7800.00
00024             160.00    -7800.00
00025              80.00    -8200.00
00026              40.00    -8600.00
00027             160.00    -8400.00
00028             160.00    -9000.00
00029             120.00    -9000.00
00030             120.00    -9400.00
00031             120.00    -9400.00
00032              80.00    -9800.00
00033              80.00    -9800.00
00034             160.00    -9800.00
00035             120.00   -10200.00
00036              80.00   -10600.00
00037             160.00   -10600.00
00038             160.00   -10800.00
00039             120.00   -11000.00
00040             160.00   -11000.00
00041             160.00   -11000.00
00042              80.00   -11400.00
00043             120.00   -11600.00
00044             160.00   -11800.00
00045             160.00   -11800.00
00046             160.00   -12000.00
00047             200.00   -12200.00
00048             160.00   -12200.00
00049             160.00   -12400.00
00050             200.00   -12400.00
00051             200.00   -12600.00
00052             160.00   -12600.00
00053             160.00   -12600.00
00054             200.00   -13000.00
00055             200.00   -13000.00
00056             160.00   -13200.00
00057             240.00   -13200.00
00058             200.00   -13400.00
00059             160.00   -13400.00
00060             200.00   -13400.00
00061             200.00   -13600.00
00062             200.00   -13800.00
00063             240.00   -13600.00
00064             280.00   -13600.00
00065             200.00   -13800.00
00066             200.00   -13800.00
00067             200.00   -14000.00
00068             200.00   -14000.00
00069             240.00   -14000.00
00070             200.00   -14000.00
00071             280.00   -14000.00
00072             200.00   -14000.00
00073             280.00   -14000.00
00074             200.00   -14200.00
00075             200.00   -14000.00
00076             200.00   -13800.00
00077             240.00   -14000.00
00078             240.00   -14000.00
00079             200.00   -14000.00
00080             200.00   -14000.00
00081             240.00   -14000.00
00082             200.00   -14000.00
00083             240.00   -14000.00
00084             240.00   -13600.00
00085             200.00   -13800.00
00086             240.00   -13600.00
00087             200.00   -13600.00
00088             280.00   -13600.00
00089             200.00   -13600.00
00090             280.00   -13400.00
00091             280.00   -13400.00
00092             280.00   -13400.00
00093             200.00   -13400.00
00094             200.00   -13200.00
00095             200.00   -13200.00
00096             240.00   -13000.00
00097             280.00   -13000.00
00098             200.00   -12800.00
00099             200.00   -12800.00
00100             200.00   -12600.00
00101             280.00   -12200.00
00102             240.00   -12400.00
00103             200.00   -12200.00
00104             200.00   -12200.00
00105             240.00   -12000.00
00106             200.00   -11800.00
00107             200.00   -11600.00
00108             200.00   -11400.00
00109             200.00   -11400.00
00110             240.00   -11200.00
00111             200.00   -11000.00
00112             240.00   -10800.00
00113             200.00   -10800.00
00114             200.00   -10600.00
00115             200.00   -10600.00
00116             200.00   -10200.00
00117             200.00   -10000.00
00118             200.00    -9800.00
00119             160.00    -9400.00
00120             160.00    -9400.00
00121             200.00    -9200.00
00122             200.00    -9000.00
00123             200.00    -8800.00
00124             200.00    -8600.00
00125             240.00    -8400.00
00126             160.00    -8200.00
00127             160.00    -8000.00
00128             200.00    -7800.00
00129             160.00    -7200.00
00130             200.00    -7200.00
00131             160.00    -7000.00
00132             200.00    -6800.00
00133             120.00    -6600.00
00134             160.00    -6400.00
00135             160.00    -6000.00
00136             160.00    -5800.00
00137             160.00    -5600.00
00138             120.00    -5400.00
00139             120.00    -5200.00
00140             120.00    -5000.00
00141             120.00    -4600.00
00142             120.00    -4600.00
00143             120.00    -4000.00
00144             120.00    -3800.00
00145             120.00    -3600.00
00146             120.00    -3400.00
00147              80.00    -3000.00
00148              80.00    -2800.00
00149              80.00    -2600.00
00150             120.00    -2200.00
00151              80.00    -2000.00
00152              40.00    -1800.00
00153              40.00    -1600.00
00154              40.00    -1200.00
00155              80.00    -1000.00
00156              40.00     -600.00
00157              40.00     -600.00
00158              40.00     -200.00
00159              40.00        0.00
00160              40.00      200.00
00161             120.00      600.00
00162             240.00      800.00
00163             280.00     1000.00
00164             200.00     1200.00
00165             160.00     1400.00
00166             120.00     1800.00
00167             280.00     2000.00
00168            1000.00     2600.00
00169            1440.00     2800.00
00170             320.00     2800.00
00171           -1080.00     3000.00
00172           -1440.00     3400.00
00173           -1320.00     3600.00
00174            -520.00     4000.00
00175             760.00     3800.00
00176             440.00     4200.00
00177             520.00     4600.00
00178              80.00     4600.00
00179            -200.00     5400.00
00180             160.00     5600.00
00181            -160.00     5200.00
00182             200.00     6200.00
00183             160.00     5800.00
00184            -160.00     6800.00
00185            -200.00     6400.00
00186            -200.00     6600.00
00187              40.00     7400.00
00188            -160.00     6800.00
00189              40.00     7800.00
00190             -40.00     7600.00
00191             -40.00     8000.00
00192             -40.00     8000.00
00193             -40.00     8400.00
00194             -40.00     8600.00
00195            -160.00     8600.00
00196             -40.00     9200.00
00197            -160.00     9000.00
00198            -120.00     9400.00
00199            -200.00     9600.00
00200               0.00     9800.00
00201             -80.00    10200.00
00202            -120.00    10200.00
00203            -160.00    10200.00
00204            -160.00    10400.00
00205            -160.00    10800.00
00206            -200.00    10800.00
00207            -120.00    11000.00
00208            -200.00    11000.00
00209            -200.00    11400.00
00210            -200.00    11600.00
00211            -120.00    11600.00
00212            -200.00    11600.00
00213            -160.00    12200.00
00214            -200.00    12200.00
00215            -280.00    12200.00
00216            -200.00    12400.00
00217            -160.00    12600.00
00218            -200.00    12600.00
00219            -200.00    12600.00
00220            -200.00    12800.00
00221            -200.00    13000.00
00222            -200.00    13000.00
00223            -200.00    13200.00
00224            -200.00    13200.00
00225            -200.00    13200.00
00226            -280.00    13400.00
00227            -200.00    13600.00
00228            -240.00    13400.00
00229            -200.00    13400.00
00230            -200.00    13800.00
00231            -200.00    13800.00
00232            -240.00    13800.00
00233            -200.00    14000.00
00234            -200.00    13800.00
00235            -200.00    14000.00
00236            -200.00    14000.00
00237            -200.00    14000.00
00238            -280.00    14200.00
00239            -240.00    14000.00
00240            -200.00    14000.00
00241            -280.00    14200.00
00242            -240.00    14200.00
00243            -240.00    14200.00
00244            -240.00    14000.00
00245            -200.00    14000.00
00246            -280.00    14000.00
00247            -280.00    14000.00
00248            -280.00    14000.00
00249            -280.00    14000.00
00250            -200.00    14000.00
00251            -200.00    13800.00
00252            -280.00    13800.00
00253            -280.00    13800.00
00254            -280.00    13800.00
00255            -280.00    13800.00
00256            -200.00    13600.00
00257            -200.00    13400.00
00258            -200.00    13600.00
00259            -280.00    13400.00
00260            -240.00    13400.00
00261            -280.00    13200.00
00262            -240.00    13200.00
00263            -240.00    13000.00
00264            -200.00    13000.00
00265            -200.00    13000.00
00266            -280.00    13000.00
00267            -200.00    12600.00
00268            -200.00    12400.00
00269            -200.00    12200.00
00270            -200.00    12200.00
00271            -200.00    12200.00
00272            -280.00    11800.00
00273            -240.00    11800.00
00274            -280.00    11600.00
00275            -240.00    11400.00
00276            -200.00    11400.00
00277            -200.00    11000.00
00278            -240.00    11000.00
00279            -280.00    10800.00
00280            -240.00    10600.00
00281            -240.00    10600.00
00282            -200.00    10600.00
00283            -200.00    10200.00
00284            -200.00    10000.00
00285            -200.00     9800.00
00286            -240.00     9600.00
00287            -280.00     9400.00
00288            -200.00     9200.00
00289            -200.00     9000.00
00290            -200.00     8600.00
00291            -200.00     8600.00
00292            -200.00     8400.00
00293            -200.00     8200.00
00294            -200.00     7800.00
00295            -200.00     7800.00
00296            -200.00     7600.00
00297            -200.00     7400.00
00298            -200.00     7000.00
00299            -200.00     6800.00
00300            -200.00     6600.00
00301            -200.00     6400.00
00302            -160.00     6000.00
00303            -200.00     6000.00
00304            -160.00     5600.00
00305            -160.00     5200.00
00306            -200.00     5200.00
00307            -160.00     4800.00
00308            -160.00     4600.00
00309            -160.00     4200.00
00310            -120.00     4200.00
00311            -120.00     4000.00
00312            -120.00     3600.00
00313            -160.00     3400.00
00314            -160.00     3000.00
00315            -120.00     2800.00
00316            -120.00     2600.00
00317            -120.00     2400.00
00318            -120.00     2000.00
00319            -120.00     2000.00
00320            -120.00     1400.00
00321            -120.00     1400.00
00322            -120.00     1000.00
00323             -40.00      800.00
00324             -80.00      400.00
00325             -40.00      200.00
00326             -40.00     -200.00
00327             -40.00     -200.00
00328              40.00     -600.00
00329             120.00     -600.00
00330             160.00    -1000.00
00331             120.00    -1200.00
00332              40.00    -1400.00
00333               0.00    -1800.00
00334              40.00    -2000.00
00335             320.00    -2200.00
00336            1080.00    -2600.00
00337             960.00    -3000.00
00338            -200.00    -3400.00
00339           -1120.00    -3400.00
00340           -1080.00    -3600.00
00341            -960.00    -3600.00
00342            -560.00    -3800.00
00343             480.00    -4400.00
00344             360.00    -4600.00
00345             440.00    -4400.00
00346             320.00    -5400.00
00347             -40.00    -5200.00
00348             280.00    -5600.00
00349             120.00    -5800.00
00350             120.00    -6200.00
00351             160.00    -6600.00
00352               0.00    -6200.00
00353            -120.00    -7000.00
00354             -40.00    -6800.00
00355             160.00    -7000.00
00356               0.00    -7600.00
00357              40.00    -7600.00
00358             160.00    -8000.00
00359              80.00    -7800.00
00360              40.00    -8600.00
00361             120.00    -8600.00
00362             160.00    -8600.00
00363              80.00    -9200.00
00364              80.00    -9000.00
00365             120.00    -9400.00
00366              80.00    -9400.00
00367              40.00    -9800.00
00368             120.00    -9800.00
00369             160.00   -10000.00
00370             120.00   -10600.00
00371             160.00   -10600.00
00372             160.00   -10800.00
00373             120.00   -11000.00
00374             120.00   -11000.00
00375             160.00   -11000.00
00376             120.00   -11400.00
00377             120.00   -11400.00
00378             160.00   -11600.00
00379             200.00   -11800.00
00380             160.00   -11800.00
00381             160.00   -12200.00
00382             200.00   -12200.00
00383             120.00   -12200.00
00384             160.00   -12400.00
00385             240.00   -12600.00
00386             200.00   -12600.00
00387             160.00   -13000.00
00388             200.00   -12800.00
00389             200.00   -13000.00
00390             200.00   -13000.00
00391             240.00   -13200.00
00392             240.00   -13200.00
00393             200.00   -13400.00
00394             160.00   -13400.00
00395             200.00   -13600.00
00396             200.00   -13600.00
00397             240.00   -13800.00
00398             280.00   -13600.00
00399             280.00   -13600.00
00400             200.00   -13800.00
00401             200.00   -14000.00
00402             200.00   -14000.00
00403             200.00   -14000.00
00404             240.00   -14000.00
00405             200.00   -14000.00
00406             280.00   -14000.00
00407             200.00   -14200.00
00408             200.00   -14000.00
00409             280.00   -14200.00
00410             200.00   -14000.00
00411             200.00   -14200.00
00412             240.00   -14000.00
00413             280.00   -14000.00
00414             200.00   -14200.00
00415             200.00   -14000.00
00416             200.00   -14000.00
00417             240.00   -14000.00
00418             280.00   -14000.00
00419             280.00   -13800.00
00420             240.00   -14000.00
00421             200.00   -13600.00
00422             200.00   -13600.00
00423             200.00   -13600.00
00424             200.00   -13600.00
00425             240.00   -13400.00
00426             200.00   -13400.00
00427             240.00   -13200.00
00428             200.00   -13200.00
00429             240.00   -13200.00
00430             280.00   -13000.00
00431             280.00   -13000.00
00432             280.00   -12800.00
00433             280.00   -12600.00
00434             200.00   -12600.00
00435             200.00   -12400.00
00436             200.00   -12400.00
00437             200.00   -12200.00
00438             280.00   -12200.00
00439             200.00   -11800.00
00440             240.00   -11800.00
00441             200.00   -11800.00
00442             280.00   -11600.00
00443             200.00   -11400.00
00444             200.00   -11400.00
00445             280.00   -11000.00
00446             200.00   -11000.00
00447             200.00   -10800.00
00448             200.00   -10600.00
00449             200.00   -10400.00
00450             200.00   -10000.00
00451             200.00   -10000.00
00452             240.00    -9800.00
00453             160.00    -9800.00
00454             160.00    -9400.00
00455             160.00    -9200.00
00456             200.00    -9200.00
00457             160.00    -8800.00
00458             200.00    -8600.00
00459             160.00    -8400.00
00460             160.00    -8400.00
00461             160.00    -7800.00
00462             160.00    -7800.00
00463             200.00    -7600.00
00464             200.00    -7200.00
00465             160.00    -7200.00
00466             160.00    -6800.00
00467             120.00    -6600.00
00468             160.00    -6400.00
00469             160.00    -6200.00
00470             160.00    -6000.00
00471             160.00    -5800.00
00472             120.00    -5400.00
00473             120.00    -5200.00
00474             120.00    -5000.00
00475             120.00    -4600.00
00476             120.00    -4600.00
00477             120.00    -4400.00
00478             120.00    -4200.00
00479             120.00    -3600.00
00480              80.00    -3600.00
00481             120.00    -3200.00
00482             120.00    -3000.00
00483             120.00    -2800.00
00484             120.00    -2600.00
00485              40.00    -2200.00
00486              40.00    -1800.00
00487              40.00    -1800.00
00488              80.00    -1400.00
00489              40.00    -1200.00
00490              80.00     -800.00
00491              80.00     -600.00
00492              40.00     -400.00
00493              40.00        0.00
00494              40.00      200.00
00495              80.00      400.00
00496             200.00      600.00
00497             280.00     1000.00
00498             200.00     1200.00
00499             160.00     1400.00
00500             120.00     1600.00
00501             160.00     1800.00
00502             640.00     2200.00
00503            1480.00     2800.00
00504             840.00     2800.00
00505            -680.00     3000.00
00506           -1480.00     3200.00
00507           -1400.00     3600.00
00508           -1000.00     3800.00
00509             440.00     4000.00
00510             640.00     4000.00
00511             440.00     4800.00
00512             360.00     4600.00
00513            -280.00     4800.00
00514             160.00     5800.00
00515             -40.00     5200.00
00516             -40.00     6000.00
00517             280.00     6000.00
00518            -120.00     6200.00
00519            -160.00     6600.00
00520            -240.00     6200.00
00521               0.00     7400.00
00522             -80.00     6800.00
00523             -40.00     7400.00
00524              40.00     7800.00
