Unit:(mV)
                     CH1         CH2
Frequency              ? 234.079 kHz
00001               6.00    12000.00
00002              12.80    12200.00
00003               7.60    12000.00
00004               5.80    12400.00
00005              11.00    12400.00
00006               9.80    12400.00
00007               6.80    12600.00
00008              10.20    12600.00
00009              11.80    12800.00
00010               9.40    12800.00
00011               9.60    13000.00
00012              13.00    13000.00
00013              12.20    13200.00
00014               9.80    13200.00
00015              12.80    13400.00
00016              14.60    13200.00
00017              12.60    13400.00
00018              12.80    13400.00
00019              15.40    13600.00
00020              14.80    13600.00
00021              14.00    13600.00
00022              16.60    13800.00
00023              17.00    13600.00
00024              16.00    13600.00
00025              17.40    14000.00
00026              19.40    13800.00
00027              18.20    13800.00
00028              18.60    14000.00
00029              20.80    13800.00
00030              21.00    14000.00
00031              20.60    14000.00
00032              22.20    14200.00
00033              22.80    14000.00
00034              23.00    14200.00
00035              23.40    14200.00
00036              23.80    14200.00
00037              24.40    14000.00
00038              24.60    14200.00
00039              25.00    14200.00
00040              25.00    14000.00
00041              25.00    14200.00
00042              23.80    14000.00
00043              23.80    14200.00
00044              23.20    14000.00
00045              21.60    14000.00
00046              21.20    14000.00
00047              20.60    14000.00
00048              19.40    14000.00
00049              18.60    14000.00
00050              17.40    14000.00
00051              17.00    14000.00
00052              17.00    13800.00
00053              16.00    14000.00
00054              15.80    13600.00
00055              14.80    13600.00
00056              14.20    13600.00
00057              13.80    13600.00
00058              13.20    13400.00
00059              13.20    13400.00
00060              12.40    13200.00
00061              12.20    13400.00
00062              12.60    13200.00
00063              11.60    13200.00
00064              10.80    13200.00
00065              10.80    13000.00
00066              10.80    13000.00
00067              10.20    12800.00
00068              10.00    12600.00
00069               9.40    12800.00
00070               9.20    12600.00
00071               9.20    12400.00
00072               8.80    12400.00
00073               7.80    12400.00
00074               8.40    12200.00
00075               8.20    12200.00
00076               8.20    12000.00
00077               7.60    12000.00
00078               7.20    11800.00
00079               7.40    11800.00
00080               7.00    11600.00
00081               6.80    11200.00
00082               7.00    11200.00
00083               6.00    11200.00
00084               6.00    11000.00
00085               6.60    11000.00
00086               5.60    10800.00
00087               5.20    10800.00
00088               5.80    10400.00
00089               5.40    10400.00
00090               5.20    10200.00
00091               4.60    10000.00
00092               5.80     9800.00
00093               4.40     9800.00
00094               3.80     9600.00
00095               5.00     9400.00
00096               4.60     9200.00
00097               2.60     9200.00
00098               4.80     8800.00
00099               4.40     8800.00
00100               2.60     8600.00
00101               3.60     8400.00
00102               4.40     8200.00
00103               2.60     8200.00
00104               2.80     8000.00
00105               3.60     7800.00
00106               2.60     7800.00
00107               2.60     7400.00
00108               3.00     7200.00
00109               2.60     7200.00
00110               2.20     7000.00
00111               2.20     6800.00
00112               2.60     6600.00
00113               2.20     6400.00
00114               1.80     6200.00
00115               2.00     6000.00
00116               2.20     5800.00
00117               1.40     5600.00
00118               1.40     5400.00
00119               1.80     5400.00
00120               1.40     5000.00
00121               1.40     4800.00
00122               1.40     4600.00
00123               1.40     4400.00
00124               1.00     4400.00
00125               1.00     4000.00
00126               1.20     4000.00
00127               1.00     3800.00
00128               0.60     3600.00
00129               1.20     3200.00
00130               1.00     3000.00
00131               0.40     3000.00
00132               0.60     2800.00
00133               0.40     2400.00
00134               0.40     2200.00
00135               0.60     2200.00
00136               0.40     2000.00
00137               0.40     1600.00
00138               0.40     1600.00
00139               0.20     1200.00
00140               0.20     1000.00
00141               0.20      800.00
00142               0.40      600.00
00143              -0.20      400.00
00144               0.00      400.00
00145              -0.20        0.00
00146              -0.20     -200.00
00147              -0.20     -400.00
00148               1.20     -400.00
00149               1.20     -800.00
00150              -2.20     -800.00
00151              -0.80    -1200.00
00152               1.00    -1200.00
00153              -1.20    -1400.00
00154               0.40    -1800.00
00155              19.40    -1800.00
00156              11.80    -2400.00
00157             -25.00    -2400.00
00158             -15.80    -2800.00
00159               6.00    -2600.00
00160              25.00    -2800.00
00161              25.00    -3600.00
00162             -25.00    -3200.00
00163              25.00    -3200.00
00164              25.00    -4000.00
00165             -25.00    -3600.00
00166             -25.00    -4200.00
00167              25.00    -4600.00
00168             -25.00    -4400.00
00169             -25.00    -4800.00
00170              25.00    -5000.00
00171             -25.00    -5000.00
00172               4.80    -5600.00
00173             -21.20    -5400.00
00174              14.80    -5800.00
00175              25.00    -6000.00
00176             -25.00    -5800.00
00177              25.00    -6400.00
00178              25.00    -6400.00
00179             -25.00    -6600.00
00180              -9.00    -7000.00
00181              25.00    -6800.00
00182               8.60    -7200.00
00183             -25.00    -7400.00
00184              19.40    -7600.00
00185              25.00    -8000.00
00186             -25.00    -8000.00
00187               3.40    -8400.00
00188              23.60    -8200.00
00189             -17.40    -8600.00
00190             -24.60    -8600.00
00191              17.00    -8800.00
00192               5.60    -9000.00
00193             -25.00    -9000.00
00194              10.80    -9200.00
00195               4.20    -9600.00
00196             -18.60    -9600.00
00197              -6.00    -9800.00
00198               4.20    -9800.00
00199              -6.20   -10000.00
00200             -14.60   -10000.00
00201               2.20   -10400.00
00202              -2.20   -10400.00
00203             -13.00   -10600.00
00204              -7.00   -10800.00
00205               2.20   -10800.00
00206             -12.00   -11000.00
00207              -9.80   -11000.00
00208               2.00   -11200.00
00209             -10.20   -11200.00
00210             -11.60   -11600.00
00211              -3.00   -11600.00
00212              -4.60   -11600.00
00213             -15.00   -11800.00
00214              -6.00   -12000.00
00215              -2.20   -12200.00
00216             -13.40   -12200.00
00217             -10.00   -12400.00
00218              -4.40   -12400.00
00219             -10.80   -12400.00
00220             -13.00   -12600.00
00221              -6.20   -12800.00
00222              -9.00   -12800.00
00223             -13.40   -12800.00
00224             -10.80   -13000.00
00225              -7.60   -13000.00
00226             -13.40   -13200.00
00227             -14.40   -13000.00
00228              -9.60   -13200.00
00229             -11.80   -13400.00
00230             -15.00   -13400.00
00231             -13.80   -13600.00
00232             -12.20   -13600.00
00233             -15.80   -13600.00
00234             -16.40   -13600.00
00235             -14.00   -13800.00
00236             -17.00   -13600.00
00237             -18.00   -13800.00
00238             -16.40   -13800.00
00239             -17.40   -13800.00
00240             -19.80   -13800.00
00241             -19.80   -14000.00
00242             -18.80   -14000.00
00243             -20.40   -14000.00
00244             -22.20   -14000.00
00245             -21.80   -14000.00
00246             -22.00   -14000.00
00247             -23.00   -14000.00
00248             -23.80   -14000.00
00249             -23.60   -14200.00
00250             -24.40   -14000.00
00251             -25.00   -14000.00
00252             -25.00   -14000.00
00253             -25.00   -14000.00
00254             -25.00   -14200.00
00255             -25.00   -14000.00
00256             -24.40   -14200.00
00257             -23.80   -14000.00
00258             -24.40   -14200.00
00259             -22.20   -14000.00
00260             -21.40   -14000.00
00261             -21.00   -14000.00
00262             -19.00   -14000.00
00263             -19.60   -14000.00
00264             -18.80   -13800.00
00265             -17.40   -14000.00
00266             -17.40   -13800.00
00267             -16.60   -13800.00
00268             -16.20   -13800.00
00269             -14.80   -13600.00
00270             -15.80   -13600.00
00271             -14.20   -13600.00
00272             -12.60   -13600.00
00273             -15.80   -13600.00
00274             -12.40   -13200.00
00275             -11.00   -13200.00
00276             -14.20   -13200.00
00277             -12.20   -13200.00
00278             -10.80   -13000.00
00279             -11.00   -13000.00
00280             -11.80   -12800.00
00281             -10.20   -12800.00
00282             -10.20   -12800.00
00283             -11.00   -12600.00
00284              -9.20   -12600.00
00285             -10.00   -12400.00
00286              -9.20   -12400.00
00287              -9.20   -12200.00
00288              -9.20   -12200.00
00289              -7.40   -12000.00
00290              -9.00   -12000.00
00291              -8.80   -11800.00
00292              -7.00   -11800.00
00293              -7.00   -11600.00
00294              -7.60   -11400.00
00295              -7.40   -11400.00
00296              -7.40   -11000.00
00297              -6.00   -11000.00
00298              -6.80   -11000.00
00299              -8.20   -10800.00
00300              -5.40   -10600.00
00301              -6.00   -10600.00
00302              -7.40   -10400.00
00303              -4.60   -10200.00
00304              -4.60   -10000.00
00305              -6.80   -10000.00
00306              -5.00    -9800.00
00307              -4.60    -9800.00
00308              -6.20    -9600.00
00309              -5.40    -9600.00
00310              -4.20    -9000.00
00311              -4.60    -9200.00
00312              -5.00    -9000.00
00313              -4.20    -8800.00
00314              -4.40    -8600.00
00315              -4.40    -8400.00
00316              -3.80    -8200.00
00317              -3.80    -8200.00
00318              -4.20    -8000.00
00319              -4.20    -7800.00
00320              -3.00    -7600.00
00321              -3.40    -7400.00
00322              -3.60    -7400.00
00323              -3.40    -7000.00
00324              -2.80    -6800.00
00325              -2.60    -6800.00
00326              -3.00    -6600.00
00327              -3.00    -6400.00
00328              -2.80    -6000.00
00329              -2.20    -6000.00
00330              -3.00    -5800.00
00331              -2.60    -5600.00
00332              -2.20    -5600.00
00333              -3.00    -5200.00
00334              -2.00    -5000.00
00335              -1.20    -4600.00
00336              -2.80    -4600.00
00337              -2.00    -4400.00
00338              -1.00    -4200.00
00339              -2.00    -4000.00
00340              -1.80    -3800.00
00341              -1.20    -3600.00
00342              -1.80    -3400.00
00343              -1.80    -3200.00
00344              -1.40    -3000.00
00345              -1.40    -3000.00
00346              -1.40    -2600.00
00347              -1.40    -2600.00
00348              -0.60    -2400.00
00349              -1.00    -2200.00
00350              -1.20    -1800.00
00351              -0.60    -1600.00
00352              -0.60    -1400.00
00353              -0.60    -1200.00
00354              -0.60     -800.00
00355              -0.20     -800.00
00356              -0.80     -600.00
00357              -0.40     -400.00
00358              -0.20     -200.00
00359              -0.60        0.00
00360              -0.40      200.00
00361               1.20      400.00
00362               2.00      400.00
00363              -1.00      600.00
00364              -0.60      800.00
00365               1.40     1200.00
00366               0.40     1400.00
00367              -0.60     1600.00
00368               2.60     1800.00
00369              12.60     2000.00
00370              16.40     2400.00
00371             -25.00     2600.00
00372             -23.80     2600.00
00373               9.00     2800.00
00374               1.40     3000.00
00375              25.00     3200.00
00376             -17.60     3400.00
00377             -25.00     3800.00
00378              25.00     3800.00
00379              23.60     3800.00
00380             -25.00     4200.00
00381              25.00     4400.00
00382              25.00     4400.00
00383             -25.00     4800.00
00384              25.00     5200.00
00385              15.40     5200.00
00386             -18.60     5400.00
00387               2.60     5600.00
00388               3.00     5800.00
00389              17.00     6000.00
00390             -17.40     6200.00
00391              -7.40     6400.00
00392              25.00     6400.00
00393               0.60     7000.00
00394             -23.40     7000.00
00395               7.40     7200.00
00396              25.00     7200.00
00397             -18.20     7400.00
00398             -16.80     7800.00
00399              25.00     7800.00
00400               1.00     8200.00
00401             -21.40     8400.00
00402              21.00     8400.00
00403              13.60     8400.00
00404             -20.20     8800.00
00405               8.40     8800.00
00406              22.80     9000.00
00407             -10.80     9200.00
00408              -0.60     9200.00
00409              19.40     9400.00
00410               0.40     9600.00
00411              -5.20    10000.00
00412              10.20     9800.00
00413               9.80    10000.00
00414              -0.20    10200.00
00415               3.60    10400.00
00416              10.60    10400.00
00417               5.20    10600.00
00418               0.60    10800.00
00419               9.00    10800.00
00420               8.80    11000.00
00421               1.00    11000.00
00422               7.60    11200.00
00423              11.00    11400.00
00424               3.00    11600.00
00425               5.00    11600.00
00426              11.80    11800.00
00427               6.00    11800.00
00428               3.60    11800.00
00429              11.80    12000.00
00430               9.40    12200.00
00431               4.80    12400.00
00432               9.80    12400.00
00433              10.80    12600.00
00434               7.40    12600.00
00435               9.20    12800.00
00436              11.60    12800.00
00437              10.20    13000.00
00438               9.20    13000.00
00439              11.60    13200.00
00440              12.40    13200.00
00441              10.20    13400.00
00442              11.60    13200.00
00443              14.20    13400.00
00444              13.20    13400.00
00445              12.20    13400.00
00446              14.60    13600.00
00447              15.20    13600.00
00448              13.80    13600.00
00449              15.40    13600.00
00450              17.20    13600.00
00451              16.20    13600.00
00452              16.40    13600.00
00453              18.60    14000.00
00454              19.00    13800.00
00455              18.60    14000.00
00456              20.40    14000.00
00457              21.20    14000.00
00458              20.20    14000.00
00459              22.00    14000.00
00460              22.00    14000.00
00461              23.00    14000.00
00462              24.20    14200.00
00463              22.80    14200.00
00464              24.40    14200.00
00465              25.00    14000.00
00466              24.20    14000.00
00467              24.80    14000.00
00468              25.00    14000.00
00469              23.80    14000.00
00470              23.00    14200.00
00471              24.60    14000.00
00472              22.20    14000.00
00473              20.40    14000.00
00474              21.40    14000.00
00475              20.20    14000.00
00476              18.60    14000.00
00477              18.00    14000.00
00478              17.80    14000.00
00479              17.00    13800.00
00480              16.40    13600.00
00481              16.20    13600.00
00482              15.40    13800.00
00483              14.20    13600.00
00484              14.60    13600.00
00485              13.60    13600.00
00486              13.00    13400.00
00487              13.20    13400.00
00488              12.60    13200.00
00489              12.20    13200.00
00490              11.80    13200.00
00491              11.20    13200.00
00492              10.80    13000.00
00493              10.80    12800.00
00494              10.20    12800.00
00495              10.00    12800.00
00496              10.00    12600.00
00497               9.40    12600.00
00498               8.80    12400.00
00499               9.00    12400.00
00500               8.40    12400.00
00501               8.20    12400.00
00502               8.20    12000.00
00503               7.80    12000.00
00504               7.60    11800.00
00505               6.80    11800.00
00506               7.40    11600.00
00507               7.00    11600.00
00508               6.60    11600.00
00509               6.80    11200.00
00510               6.00    11200.00
00511               6.00    11000.00
00512               6.00    11000.00
00513               5.80    10800.00
00514               5.20    10800.00
00515               5.20    10400.00
00516               5.40    10400.00
00517               5.20    10200.00
00518               4.40    10000.00
00519               5.00    10000.00
00520               4.40     9800.00
00521               4.60     9600.00
00522               5.00     9400.00
00523               3.00     9400.00
00524               4.60     9200.00
