Unit:(mV)
                     CH1         CH2
Frequency              ? 261.357 kHz
00001              -4.00    -4000.00
00002              -4.00    -3800.00
00003              -6.00    -3600.00
00004              -8.00    -3600.00
00005              -8.00    -3200.00
00006              -8.00    -3200.00
00007              -8.00    -2800.00
00008              -4.00    -2800.00
00009              -4.00    -2400.00
00010              -4.00    -2400.00
00011             -10.00    -2200.00
00012             -10.00    -2000.00
00013              -8.00    -1800.00
00014              -6.00    -1600.00
00015              -4.00    -1200.00
00016              -2.00    -1200.00
00017              -8.00    -1000.00
00018             -10.00     -800.00
00019              -8.00     -800.00
00020              -8.00     -400.00
00021              -6.00     -400.00
00022              -2.00     -200.00
00023              -2.00        0.00
00024              -2.00      200.00
00025              20.00      400.00
00026              16.00      600.00
00027             -16.00      800.00
00028             -24.00     1000.00
00029               4.00     1200.00
00030              20.00     1200.00
00031              36.00     1400.00
00032             238.00     1800.00
00033             220.00     2200.00
00034            -248.00     2200.00
00035            -248.00     2400.00
00036             -16.00     2400.00
00037             252.00     2600.00
00038             252.00     2800.00
00039             -26.00     3000.00
00040            -248.00     3000.00
00041             212.00     3400.00
00042             252.00     3600.00
00043            -248.00     3800.00
00044            -248.00     3800.00
00045             180.00     4000.00
00046              56.00     4400.00
00047             252.00     4000.00
00048             -66.00     4800.00
00049            -248.00     5000.00
00050             252.00     4600.00
00051             252.00     5400.00
00052             -94.00     5200.00
00053             -66.00     5000.00
00054            -248.00     6200.00
00055             118.00     5800.00
00056             252.00     5600.00
00057            -106.00     6400.00
00058            -248.00     6200.00
00059             -72.00     6400.00
00060             252.00     6800.00
00061              64.00     6600.00
00062            -218.00     7000.00
00063              14.00     7000.00
00064             -38.00     7400.00
00065              82.00     7400.00
00066             108.00     7600.00
00067            -170.00     7800.00
00068             -10.00     7600.00
00069              68.00     8000.00
00070              -8.00     8200.00
00071             -18.00     7800.00
00072             -32.00     8600.00
00073              20.00     8400.00
00074             -10.00     8400.00
00075              22.00     8800.00
00076             -28.00     8600.00
00077             -58.00     9000.00
00078              78.00     8800.00
00079              -8.00     9200.00
00080             -58.00     9200.00
00081              28.00     9400.00
00082             -10.00     9600.00
00083             -20.00     9400.00
00084               8.00     9800.00
00085              -4.00     9800.00
00086             -10.00     9600.00
00087               4.00    10000.00
00088              -4.00    10000.00
00089             -32.00    10200.00
00090              22.00    10200.00
00091               8.00    10200.00
00092             -32.00    10400.00
00093               6.00    10400.00
00094              -2.00    10800.00
00095             -16.00    10400.00
00096              12.00    10800.00
00097             -12.00    10800.00
00098             -30.00    10800.00
00099              16.00    11000.00
00100              26.00    11000.00
00101             -20.00    11200.00
00102             -20.00    11200.00
00103               0.00    11200.00
00104              -8.00    11200.00
00105               6.00    11200.00
00106               6.00    11200.00
00107             -20.00    11200.00
00108              -4.00    11200.00
00109               8.00    11400.00
00110             -14.00    11400.00
00111               2.00    11400.00
00112               6.00    11600.00
00113             -16.00    11200.00
00114               6.00    11600.00
00115               4.00    11400.00
00116             -22.00    11200.00
00117              -2.00    11600.00
00118               6.00    11400.00
00119              -6.00    11400.00
00120               0.00    11400.00
00121               4.00    11600.00
00122             -18.00    11600.00
00123               0.00    11600.00
00124              12.00    11600.00
00125             -16.00    11600.00
00126              -4.00    11400.00
00127              12.00    11200.00
00128              -4.00    11200.00
00129             -10.00    11200.00
00130              -4.00    11400.00
00131              -4.00    11200.00
00132              -2.00    11000.00
00133               4.00    11200.00
00134              -4.00    11000.00
00135              -6.00    11200.00
00136              -4.00    11000.00
00137              -6.00    11000.00
00138              -4.00    10800.00
00139               4.00    11000.00
00140              -6.00    10600.00
00141              -4.00    10800.00
00142               4.00    10600.00
00143              -6.00    10400.00
00144             -10.00    10200.00
00145               0.00    10200.00
00146               4.00    10000.00
00147              -2.00    10200.00
00148              -4.00    10000.00
00149              -4.00    10000.00
00150              -4.00    10000.00
00151              -2.00     9800.00
00152               2.00     9600.00
00153              -4.00     9600.00
00154              -4.00     9400.00
00155              -2.00     9400.00
00156              -4.00     9200.00
00157               0.00     9200.00
00158              -2.00     9000.00
00159              -6.00     8800.00
00160               0.00     8800.00
00161               0.00     8600.00
00162              -4.00     8600.00
00163              -2.00     8400.00
00164              -2.00     8400.00
00165              -2.00     8000.00
00166               2.00     8000.00
00167               2.00     8000.00
00168              -4.00     7800.00
00169              -4.00     7600.00
00170               0.00     7600.00
00171               0.00     7400.00
00172               4.00     7200.00
00173               0.00     7000.00
00174               0.00     6800.00
00175               0.00     6800.00
00176              -2.00     6800.00
00177              -8.00     6400.00
00178               4.00     6400.00
00179               4.00     6000.00
00180               0.00     6000.00
00181              -2.00     5600.00
00182               0.00     5800.00
00183              -2.00     5400.00
00184               2.00     5400.00
00185               4.00     5200.00
00186               0.00     5000.00
00187               0.00     4800.00
00188               0.00     4600.00
00189               2.00     4600.00
00190              -2.00     4400.00
00191              -2.00     4000.00
00192               2.00     3800.00
00193               4.00     3800.00
00194               2.00     3600.00
00195               0.00     3400.00
00196              -2.00     3200.00
00197               0.00     3000.00
00198               0.00     2800.00
00199               4.00     2600.00
00200               4.00     2400.00
00201              -2.00     2200.00
00202              -4.00     2200.00
00203               0.00     2000.00
00204               0.00     1600.00
00205              -2.00     1600.00
00206               2.00     1400.00
00207               4.00     1200.00
00208               0.00     1000.00
00209              -2.00      800.00
00210              -2.00      600.00
00211              -2.00      400.00
00212               0.00      200.00
00213               4.00        0.00
00214               6.00     -200.00
00215               4.00     -400.00
00216              22.00     -400.00
00217              30.00     -600.00
00218              -2.00    -1000.00
00219             -20.00    -1000.00
00220               4.00    -1200.00
00221              22.00    -1200.00
00222              24.00    -1400.00
00223              70.00    -1600.00
00224             252.00    -2000.00
00225             120.00    -2600.00
00226            -248.00    -2600.00
00227            -248.00    -2800.00
00228             108.00    -3000.00
00229             252.00    -2600.00
00230             252.00    -2800.00
00231             110.00    -3600.00
00232            -248.00    -3200.00
00233             -84.00    -3400.00
00234             252.00    -4400.00
00235               4.00    -3600.00
00236            -248.00    -4000.00
00237             -64.00    -4600.00
00238             194.00    -4000.00
00239             252.00    -5000.00
00240             -52.00    -5000.00
00241            -248.00    -4600.00
00242              38.00    -5200.00
00243             252.00    -5200.00
00244             102.00    -5200.00
00245            -228.00    -5800.00
00246            -248.00    -5600.00
00247             172.00    -6000.00
00248             252.00    -6000.00
00249             -60.00    -6200.00
00250            -248.00    -6600.00
00251             -40.00    -6600.00
00252             252.00    -6800.00
00253             100.00    -7000.00
00254            -168.00    -7000.00
00255            -138.00    -7400.00
00256              54.00    -7200.00
00257             198.00    -7600.00
00258               0.00    -7400.00
00259            -164.00    -7800.00
00260              -8.00    -8000.00
00261             100.00    -8000.00
00262              48.00    -8200.00
00263             -58.00    -8400.00
00264             -68.00    -8400.00
00265              44.00    -8800.00
00266              78.00    -8800.00
00267             -14.00    -9000.00
00268             -82.00    -9200.00
00269              -4.00    -9200.00
00270              70.00    -9200.00
00271              24.00    -9400.00
00272             -34.00    -9600.00
00273             -34.00    -9600.00
00274              14.00    -9600.00
00275              40.00    -9800.00
00276              -4.00    -9800.00
00277             -28.00   -10000.00
00278               4.00   -10000.00
00279              28.00   -10000.00
00280               4.00   -10200.00
00281             -18.00   -10400.00
00282             -10.00   -10400.00
00283               6.00   -10400.00
00284              22.00   -10400.00
00285               4.00   -10600.00
00286             -18.00   -10600.00
00287              -4.00   -10800.00
00288               6.00   -10800.00
00289               2.00   -10800.00
00290              -4.00   -11000.00
00291               4.00   -10800.00
00292              10.00   -11200.00
00293               4.00   -11200.00
00294              -6.00   -11200.00
00295              -8.00   -11200.00
00296               4.00   -11200.00
00297              12.00   -11400.00
00298               0.00   -11400.00
00299               0.00   -11400.00
00300              -4.00   -11400.00
00301              -8.00   -11600.00
00302               4.00   -11600.00
00303               6.00   -11400.00
00304               2.00   -11600.00
00305               4.00   -11400.00
00306               2.00   -11600.00
00307              -4.00   -11600.00
00308              -4.00   -11600.00
00309               4.00   -11400.00
00310               4.00   -11400.00
00311               6.00   -11400.00
00312               4.00   -11400.00
00313              -2.00   -11600.00
00314              -4.00   -11600.00
00315              -2.00   -11600.00
00316               0.00   -11400.00
00317               6.00   -11600.00
00318               6.00   -11400.00
00319               0.00   -11400.00
00320              -4.00   -11400.00
00321              -2.00   -11400.00
00322              -4.00   -11200.00
00323               0.00   -11200.00
00324               4.00   -11000.00
00325               2.00   -11200.00
00326              -2.00   -11200.00
00327              -4.00   -11200.00
00328              -4.00   -11000.00
00329              -2.00   -11000.00
00330               0.00   -10800.00
00331               2.00   -10800.00
00332              -2.00   -10800.00
00333              -4.00   -10800.00
00334              -8.00   -10600.00
00335              -4.00   -10600.00
00336              -2.00   -10400.00
00337               0.00   -10400.00
00338               0.00   -10400.00
00339              -2.00   -10200.00
00340              -8.00   -10000.00
00341              -6.00   -10000.00
00342              -4.00    -9800.00
00343              -4.00    -9800.00
00344               0.00    -9600.00
00345              -2.00    -9600.00
00346              -4.00    -9600.00
00347              -8.00    -9200.00
00348              -4.00    -9200.00
00349              -4.00    -9200.00
00350              -4.00    -9000.00
00351              -2.00    -9000.00
00352              -4.00    -8800.00
00353              -4.00    -8800.00
00354             -10.00    -8800.00
00355              -8.00    -8400.00
00356              -2.00    -8200.00
00357              -4.00    -8200.00
00358              -2.00    -8000.00
00359              -2.00    -7800.00
00360              -4.00    -7600.00
00361              -8.00    -7600.00
00362              -4.00    -7400.00
00363              -2.00    -7400.00
00364              -2.00    -7200.00
00365              -2.00    -7000.00
00366              -4.00    -6800.00
00367              -4.00    -6600.00
00368              -6.00    -6600.00
00369              -4.00    -6400.00
00370               0.00    -6200.00
00371              -2.00    -6000.00
00372              -4.00    -5800.00
00373              -4.00    -5800.00
00374              -8.00    -5600.00
00375              -4.00    -5400.00
00376              -4.00    -5200.00
00377              -2.00    -5000.00
00378              -2.00    -5000.00
00379              -4.00    -4800.00
00380              -8.00    -4600.00
00381              -4.00    -4400.00
00382              -8.00    -4200.00
00383              -4.00    -4200.00
00384              -2.00    -4000.00
00385              -2.00    -3600.00
00386              -6.00    -3600.00
00387              -6.00    -3200.00
00388              -8.00    -3200.00
00389              -4.00    -3000.00
00390              -2.00    -2800.00
00391              -4.00    -2600.00
00392              -4.00    -2400.00
00393              -4.00    -2400.00
00394             -10.00    -2000.00
00395              -8.00    -1800.00
00396              -4.00    -1600.00
00397              -4.00    -1600.00
00398              -2.00    -1200.00
00399              -4.00    -1200.00
00400              -6.00    -1000.00
00401             -10.00     -800.00
00402              -8.00     -600.00
00403              -4.00     -400.00
00404              -2.00     -200.00
00405               0.00        0.00
00406              -2.00        0.00
00407               6.00      400.00
00408              22.00      600.00
00409               4.00      600.00
00410             -26.00     1000.00
00411             -16.00     1000.00
00412              12.00     1000.00
00413              22.00     1400.00
00414              86.00     1600.00
00415             252.00     2000.00
00416               6.00     2200.00
00417            -248.00     2400.00
00418            -248.00     2400.00
00419             152.00     2400.00
00420             252.00     2800.00
00421             252.00     3000.00
00422            -248.00     2800.00
00423            -248.00     3200.00
00424             252.00     3200.00
00425             252.00     3800.00
00426            -248.00     3800.00
00427            -198.00     3800.00
00428             172.00     4400.00
00429             138.00     4200.00
00430             252.00     4400.00
00431            -248.00     5200.00
00432            -248.00     4800.00
00433             252.00     4800.00
00434              96.00     5400.00
00435             -70.00     5200.00
00436            -154.00     5200.00
00437            -220.00     6200.00
00438             252.00     5600.00
00439             206.00     6200.00
00440            -232.00     6600.00
00441            -234.00     6000.00
00442              84.00     6800.00
00443             252.00     6800.00
00444            -116.00     6600.00
00445            -142.00     7200.00
00446              30.00     7000.00
00447             -40.00     7400.00
00448             156.00     7200.00
00449             -18.00     7600.00
00450            -156.00     7800.00
00451              64.00     7800.00
00452              30.00     8400.00
00453              -8.00     8000.00
00454             -32.00     8200.00
00455             -10.00     8600.00
00456              16.00     8200.00
00457             -10.00     8800.00
00458              28.00     8800.00
00459             -68.00     8800.00
00460              -4.00     9200.00
00461              76.00     9000.00
00462             -60.00     9200.00
00463             -18.00     9200.00
00464              24.00     9600.00
00465             -24.00     9600.00
00466              -4.00     9600.00
00467               4.00     9800.00
00468             -10.00     9800.00
00469             -10.00     9800.00
00470              12.00    10000.00
00471             -18.00    10000.00
00472             -20.00    10200.00
00473              24.00    10200.00
00474             -18.00    10400.00
00475             -20.00    10400.00
00476              16.00    10400.00
00477             -14.00    10600.00
00478              -8.00    10600.00
00479               8.00    10800.00
00480             -20.00    11000.00
00481             -18.00    10800.00
00482              24.00    11000.00
00483               4.00    11000.00
00484             -26.00    11000.00
00485              -4.00    11000.00
00486              -4.00    11200.00
00487              -8.00    11200.00
00488               6.00    11200.00
00489              -4.00    11400.00
00490             -18.00    11400.00
00491               4.00    11400.00
00492               0.00    11400.00
00493             -12.00    11200.00
00494              -2.00    11400.00
00495              -2.00    11600.00
00496              -4.00    11400.00
00497               4.00    11600.00
00498              -8.00    11600.00
00499             -18.00    11600.00
00500               4.00    11600.00
00501               6.00    11600.00
00502              -8.00    11400.00
00503              -2.00    11600.00
00504              -2.00    11600.00
00505             -10.00    11600.00
00506               0.00    11400.00
00507               4.00    11600.00
00508             -10.00    11200.00
00509               0.00    11400.00
00510               4.00    11200.00
00511             -10.00    11200.00
00512              -4.00    11200.00
00513              -4.00    11200.00
00514              -4.00    11200.00
00515               4.00    11000.00
00516               4.00    11200.00
00517              -8.00    11000.00
00518              -4.00    11000.00
00519              -2.00    11000.00
00520              -4.00    10800.00
00521              -2.00    10800.00
00522               2.00    10800.00
00523              -6.00    10600.00
00524              -4.00    10400.00
